Wavelength, W/m2 
339.619, -   
340, -   
340.381, -   
340.762, -   
341.143, -   
341.524, -   
341.904, -   
342.285, -   
342.666, -   
343.046, -   
343.427, -   
343.807, -   
344.188, -   
344.568, -   
344.949, -   
345.329, -   
345.71, -   
346.09, -   
346.47, 1.0984 
346.85, 0.2448 
347.23, 0.1391 
347.611, 0.0926 
347.991, 0.0865 
348.371, 0.0613 
348.751, 0.0625 
349.131, 0.0721 
349.511, 0.0390 
349.891, 0.0390 
350.27, 0.0374 
350.65, 0.0442 
351.03, 0.0445 
351.41, 0.0449 
351.79, 0.0456 
352.169, 0.0486 
352.549, 0.0385 
352.928, 0.0469 
353.308, 0.0403 
353.687, 0.0514 
354.067, 0.0455 
354.446, 0.0440 
354.826, 0.0443 
355.205, 0.0438 
355.584, 0.0392 
355.964, 0.0558 
356.343, 0.0399 
356.722, 0.0482 
357.101, 0.0493 
357.48, 0.0486 
357.859, 0.0440 
358.238, 0.0436 
358.617, 0.0430 
358.996, 0.0402 
359.375, 0.0371 
359.754, 0.0331 
360.133, 0.0422 
360.512, 0.0422 
360.891, 0.0443 
361.269, 0.0391 
361.648, 0.0407 
362.027, 0.0350 
362.405, 0.0384 
362.784, 0.0441 
363.162, 0.0324 
363.541, 0.0337 
363.919, 0.0324 
364.298, 0.0416 
364.676, 0.0298 
365.054, 0.0343 
365.433, 0.0377 
365.811, 0.0316 
366.189, 0.0405 
366.567, 0.0300 
366.945, 0.0305 
367.323, 0.0284 
367.701, 0.0252 
368.079, 0.0273 
368.457, 0.0257 
368.835, 0.0321 
369.213, 0.0289 
369.591, 0.0393 
369.969, 0.0279 
370.346, 0.0302 
370.724, 0.0333 
371.102, 0.0207 
371.479, 0.0345 
371.857, 0.0309 
372.235, 0.0276 
372.612, 0.0297 
372.99, 0.0299 
373.367, 0.0258 
373.744, 0.0231 
374.122, 0.0303 
374.499, 0.0252 
374.876, 0.0287 
375.254, 0.0316 
375.631, 0.0354 
376.008, 0.0321 
376.385, 0.0335 
376.762, 0.0331 
377.139, 0.0337 
377.516, 0.0314 
377.893, 0.0216 
378.27, 0.0328 
378.647, 0.0295 
379.024, 0.0305 
379.4, 0.0266 
379.777, 0.0246 
380.154, 0.0253 
380.53, 0.0216 
380.907, 0.0260 
381.284, 0.0221 
381.66, 0.0265 
382.037, 0.0371 
382.413, 0.0256 
382.79, 0.0237 
383.166, 0.0286 
383.542, 0.0229 
383.919, 0.0252 
384.295, 0.0230 
384.671, 0.0217 
385.047, 0.0260 
385.423, 0.0213 
385.799, 0.0233 
386.176, 0.0175 
386.552, 0.0249 
386.928, 0.0196 
387.303, 0.0203 
387.679, 0.0234 
388.055, 0.0198 
388.431, 0.0211 
388.807, 0.0175 
389.183, 0.0190 
389.558, 0.0197 
389.934, 0.0192 
390.309, 0.0176 
390.685, 0.0201 
391.061, 0.0172 
391.436, 0.0192 
391.811, 0.0203 
392.187, 0.0188 
392.562, 0.0166 
392.938, 0.0177 
393.313, 0.0217 
393.688, 0.0203 
394.063, 0.0162 
394.438, 0.0174 
394.814, 0.0184 
395.189, 0.0175 
395.564, 0.0161 
395.939, 0.0166 
396.314, 0.0168 
396.689, 0.0201 
397.063, 0.0172 
397.438, 0.0189 
397.813, 0.0173 
398.188, 0.0170 
398.563, 0.0172 
398.937, 0.0184 
399.312, 0.0139 
399.686, 0.0154 
400.061, 0.0180 
400.435, 0.0178 
400.81, 0.0159 
401.184, 0.0172 
401.559, 0.0159 
401.933, 0.0178 
402.307, 0.0172 
402.682, 0.0168 
403.056, 0.0141 
403.43, 0.0095 
403.804, 0.0190 
404.178, 0.0234 
404.552, 0.0184 
404.926, 0.0147 
405.3, 0.0133 
405.674, 0.0152 
406.048, 0.0160 
406.422, 0.0143 
406.796, 0.0145 
407.169, 0.0164 
407.543, 0.0153 
407.917, 0.0154 
408.291, 0.0154 
408.664, 0.0148 
409.038, 0.0147 
409.411, 0.0140 
409.785, 0.0136 
410.158, 0.0126 
410.531, 0.0153 
410.905, 0.0141 
411.278, 0.0113 
411.651, 0.0131 
412.025, 0.0143 
412.398, 0.0141 
412.771, 0.0152 
413.144, 0.0118 
413.517, 0.0165 
413.89, 0.0142 
414.263, 0.0167 
414.636, 0.0146 
415.009, 0.0126 
415.382, 0.0123 
415.755, 0.0149 
416.127, 0.0146 
416.5, 0.0157 
416.873, 0.0160 
417.245, 0.0134 
417.618, 0.0140 
417.991, 0.0131 
418.363, 0.0169 
418.736, 0.0128 
419.108, 0.0146 
419.48, 0.0128 
419.853, 0.0158 
420.225, 0.0136 
420.597, 0.0149 
420.97, 0.0141 
421.342, 0.0145 
421.714, 0.0131 
422.086, 0.0128 
422.458, 0.0158 
422.83, 0.0140 
423.202, 0.0171 
423.574, 0.0140 
423.946, 0.0141 
424.318, 0.0140 
424.69, 0.0138 
425.061, 0.0130 
425.433, 0.0169 
425.805, 0.0154 
426.177, 0.0141 
426.548, 0.0127 
426.92, 0.0156 
427.291, 0.0143 
427.663, 0.0169 
428.034, 0.0172 
428.406, 0.0144 
428.777, 0.0170 
429.148, 0.0180 
429.519, 0.0203 
429.891, 0.0187 
430.262, 0.0178 
430.633, 0.0187 
431.004, 0.0192 
431.375, 0.0180 
431.746, 0.0176 
432.117, 0.0187 
432.488, 0.0195 
432.859, 0.0206 
433.23, 0.0210 
433.601, 0.0229 
433.971, 0.0209 
434.342, 0.0239 
434.713, 0.0274 
435.083, 0.0368 
435.454, 0.0412 
435.825, 0.0362 
436.195, 0.0283 
436.566, 0.0266 
436.936, 0.0290 
437.306, 0.0291 
437.677, 0.0280 
438.047, 0.0316 
438.417, 0.0308 
438.788, 0.0336 
439.158, 0.0315 
439.528, 0.0375 
439.898, 0.0380 
440.268, 0.0382 
440.638, 0.0385 
441.008, 0.0423 
441.378, 0.0432 
441.748, 0.0456 
442.118, 0.0430 
442.487, 0.0488 
442.857, 0.0494 
443.227, 0.0517 
443.597, 0.0537 
443.966, 0.0517 
444.336, 0.0558 
444.705, 0.0563 
445.075, 0.0595 
445.444, 0.0631 
445.814, 0.0695 
446.183, 0.0695 
446.552, 0.0700 
446.922, 0.0745 
447.291, 0.0746 
447.66, 0.0795 
448.029, 0.0842 
448.398, 0.0874 
448.768, 0.0915 
449.137, 0.0947 
449.506, 0.0988 
449.875, 0.1001 
450.243, 0.1053 
450.612, 0.1095 
450.981, 0.1159 
451.35, 0.1230 
451.719, 0.1235 
452.087, 0.1234 
452.456, 0.1334 
452.825, 0.1427 
453.193, 0.1405 
453.562, 0.1461 
453.93, 0.1502 
454.299, 0.1575 
454.667, 0.1599 
455.035, 0.1644 
455.404, 0.1715 
455.772, 0.1661 
456.14, 0.1774 
456.508, 0.1820 
456.877, 0.1790 
457.245, 0.1811 
457.613, 0.1866 
457.981, 0.1869 
458.349, 0.1922 
458.717, 0.1883 
459.085, 0.1919 
459.452, 0.1874 
459.82, 0.1891 
460.188, 0.1852 
460.556, 0.1901 
460.923, 0.1810 
461.291, 0.1761 
461.659, 0.1729 
462.026, 0.1709 
462.394, 0.1702 
462.761, 0.1634 
463.128, 0.1636 
463.496, 0.1595 
463.863, 0.1513 
464.23, 0.1497 
464.598, 0.1462 
464.965, 0.1361 
465.332, 0.1382 
465.699, 0.1265 
466.066, 0.1269 
466.433, 0.1233 
466.8, 0.1171 
467.167, 0.1124 
467.534, 0.1063 
467.901, 0.1055 
468.268, 0.0999 
468.635, 0.0951 
469.001, 0.0909 
469.368, 0.0902 
469.735, 0.0880 
470.101, 0.0858 
470.468, 0.0821 
470.834, 0.0809 
471.201, 0.0815 
471.567, 0.0772 
471.934, 0.0729 
472.3, 0.0747 
472.666, 0.0723 
473.032, 0.0711 
473.399, 0.0666 
473.765, 0.0647 
474.131, 0.0646 
474.497, 0.0619 
474.863, 0.0611 
475.229, 0.0562 
475.595, 0.0582 
475.961, 0.0588 
476.327, 0.0542 
476.693, 0.0531 
477.058, 0.0516 
477.424, 0.0492 
477.79, 0.0490 
478.156, 0.0496 
478.521, 0.0472 
478.887, 0.0450 
479.252, 0.0421 
479.618, 0.0405 
479.983, 0.0405 
480.348, 0.0382 
480.714, 0.0375 
481.079, 0.0365 
481.444, 0.0343 
481.81, 0.0336 
482.175, 0.0321 
482.54, 0.0328 
482.905, 0.0317 
483.27, 0.0292 
483.635, 0.0278 
484, 0.0291 
484.365, 0.0271 
484.73, 0.0258 
485.095, 0.0246 
485.459, 0.0247 
485.824, 0.0230 
486.189, 0.0221 
486.553, 0.0227 
486.918, 0.0217 
487.283, 0.0224 
487.647, 0.0196 
488.012, 0.0200 
488.376, 0.0200 
488.74, 0.0184 
489.105, 0.0194 
489.469, 0.0184 
489.833, 0.0174 
490.198, 0.0175 
490.562, 0.0168 
490.926, 0.0162 
491.29, 0.0172 
491.654, 0.0164 
492.018, 0.0154 
492.382, 0.0151 
492.746, 0.0143 
493.11, 0.0148 
493.474, 0.0144 
493.837, 0.0136 
494.201, 0.0127 
494.565, 0.0137 
494.928, 0.0134 
495.292, 0.0134 
495.656, 0.0134 
496.019, 0.0107 
496.383, 0.0119 
496.746, 0.0125 
497.109, 0.0113 
497.473, 0.0115 
497.836, 0.0111 
498.199, 0.0115 
498.563, 0.0105 
498.926, 0.0095 
499.289, 0.0092 
499.652, 0.0103 
500.015, 0.0083 
500.378, 0.0091 
500.741, 0.0097 
501.104, 0.0083 
501.467, 0.0093 
501.829, 0.0091 
502.192, 0.0094 
502.555, 0.0092 
502.918, 0.0082 
503.28, 0.0075 
503.643, 0.0080 
504.005, 0.0087 
504.368, 0.0091 
504.73, 0.0075 
505.093, 0.0081 
505.455, 0.0088 
505.817, 0.0073 
506.18, 0.0080 
506.542, 0.0081 
506.904, 0.0080 
507.266, 0.0078 
507.628, 0.0068 
507.991, 0.0065 
508.353, 0.0075 
508.715, 0.0072 
509.076, 0.0062 
509.438, 0.0066 
509.8, 0.0073 
510.162, 0.0067 
510.524, 0.0076 
510.885, 0.0064 
511.247, 0.0070 
511.609, 0.0063 
511.97, 0.0065 
512.332, 0.0072 
512.693, 0.0078 
513.055, 0.0068 
513.416, 0.0067 
513.778, 0.0056 
514.139, 0.0066 
514.5, 0.0064 
514.861, 0.0061 
515.223, 0.0053 
515.584, 0.0066 
515.945, 0.0058 
516.306, 0.0070 
516.667, 0.0063 
517.028, 0.0072 
517.389, 0.0055 
517.75, 0.0051 
518.11, 0.0056 
518.471, 0.0046 
518.832, 0.0062 
519.193, 0.0074 
519.553, 0.0057 
519.914, 0.0070 
520.274, 0.0057 
520.635, 0.0061 
520.995, 0.0057 
521.356, 0.0069 
521.716, 0.0055 
522.076, 0.0051 
522.437, 0.0054 
522.797, 0.0062 
523.157, 0.0058 
523.517, 0.0056 
523.877, 0.0055 
524.238, 0.0064 
524.598, 0.0064 
524.958, 0.0059 
525.317, 0.0060 
525.677, 0.0059 
526.037, 0.0060 
526.397, 0.0066 
526.757, 0.0047 
527.116, 0.0060 
527.476, 0.0054 
527.836, 0.0063 
528.195, 0.0059 
528.555, 0.0051 
528.914, 0.0068 
529.274, 0.0063 
529.633, 0.0055 
529.993, 0.0061 
530.352, 0.0065 
530.711, 0.0057 
531.07, 0.0065 
531.429, 0.0053 
531.789, 0.0058 
532.148, 0.0061 
532.507, 0.0053 
532.866, 0.0063 
533.225, 0.0062 
533.584, 0.0050 
533.942, 0.0043 
534.301, 0.0049 
534.66, 0.0048 
535.019, 0.0052 
535.377, 0.0055 
535.736, 0.0062 
536.095, 0.0062 
536.453, 0.0064 
536.812, 0.0049 
537.17, 0.0058 
537.528, 0.0052 
537.887, 0.0056 
538.245, 0.0056 
538.603, 0.0063 
538.962, 0.0065 
539.32, 0.0053 
539.678, 0.0060 
540.036, 0.0053 
540.394, 0.0070 
540.752, 0.0070 
541.11, 0.0076 
541.468, 0.0075 
541.826, 0.0070 
542.184, 0.0068 
542.541, 0.0076 
542.899, 0.0073 
543.257, 0.0063 
543.614, 0.0075 
543.972, 0.0062 
544.33, 0.0072 
544.687, 0.0072 
545.045, 0.0106 
545.402, 0.0127 
545.759, 0.0156 
546.117, 0.0125 
546.474, 0.0097 
546.831, 0.0085 
547.188, 0.0065 
547.546, 0.0072 
547.903, 0.0063 
548.26, 0.0063 
548.617, 0.0064 
548.974, 0.0061 
549.331, 0.0075 
549.687, 0.0058 
550.044, 0.0056 
550.401, 0.0074 
550.758, 0.0052 
551.114, 0.0065 
551.471, 0.0056 
551.828, 0.0066 
552.184, 0.0062 
552.541, 0.0069 
552.897, 0.0057 
553.254, 0.0057 
553.61, 0.0060 
553.966, 0.0064 
554.323, 0.0060 
554.679, 0.0060 
555.035, 0.0057 
555.391, 0.0065 
555.747, 0.0066 
556.103, 0.0055 
556.459, 0.0067 
556.815, 0.0052 
557.171, 0.0057 
557.527, 0.0049 
557.883, 0.0060 
558.239, 0.0066 
558.594, 0.0057 
558.95, 0.0058 
559.306, 0.0059 
559.661, 0.0061 
560.017, 0.0057 
560.372, 0.0059 
560.728, 0.0054 
561.083, 0.0057 
561.438, 0.0060 
561.794, 0.0053 
562.149, 0.0063 
562.504, 0.0060 
562.859, 0.0066 
563.215, 0.0072 
563.57, 0.0056 
563.925, 0.0061 
564.28, 0.0058 
564.635, 0.0052 
564.99, 0.0062 
565.344, 0.0059 
565.699, 0.0074 
566.054, 0.0062 
566.409, 0.0056 
566.763, 0.0053 
567.118, 0.0059 
567.473, 0.0066 
567.827, 0.0068 
568.182, 0.0062 
568.536, 0.0063 
568.891, 0.0062 
569.245, 0.0066 
569.599, 0.0059 
569.953, 0.0053 
570.308, 0.0058 
570.662, 0.0057 
571.016, 0.0058 
571.37, 0.0054 
571.724, 0.0062 
572.078, 0.0058 
572.432, 0.0062 
572.786, 0.0063 
573.14, 0.0059 
573.494, 0.0056 
573.847, 0.0065 
574.201, 0.0057 
574.555, 0.0056 
574.908, 0.0054 
575.262, 0.0058 
575.615, 0.0052 
575.969, 0.0066 
576.322, 0.0079 
576.676, 0.0064 
577.029, 0.0065 
577.382, 0.0071 
577.736, 0.0060 
578.089, 0.0069 
578.442, 0.0080 
578.795, 0.0075 
579.148, 0.0070 
579.501, 0.0073 
579.854, 0.0069 
580.207, 0.0059 
580.56, 0.0063 
580.913, 0.0064 
581.265, 0.0062 
581.618, 0.0063 
581.971, 0.0071 
582.324, 0.0074 
582.676, 0.0060 
583.029, 0.0055 
583.381, 0.0068 
583.734, 0.0063 
584.086, 0.0056 
584.438, 0.0066 
584.791, 0.0071 
585.143, 0.0068 
585.495, 0.0071 
585.847, 0.0078 
586.2, 0.0062 
586.552, 0.0066 
586.904, 0.0072 
587.256, 0.0072 
587.608, 0.0067 
587.959, 0.0069 
588.311, 0.0065 
588.663, 0.0075 
589.015, 0.0064 
589.367, 0.0074 
589.718, 0.0066 
590.07, 0.0062 
590.421, 0.0063 
590.773, 0.0062 
591.124, 0.0069 
591.476, 0.0061 
591.827, 0.0055 
592.179, 0.0069 
592.53, 0.0072 
592.881, 0.0065 
593.232, 0.0055 
593.584, 0.0076 
593.935, 0.0075 
594.286, 0.0059 
594.637, 0.0068 
594.988, 0.0065 
595.339, 0.0067 
595.689, 0.0065 
596.04, 0.0073 
596.391, 0.0073 
596.742, 0.0067 
597.092, 0.0076 
597.443, 0.0070 
597.794, 0.0065 
598.144, 0.0077 
598.495, 0.0063 
598.845, 0.0066 
599.196, 0.0070 
599.546, 0.0057 
599.896, 0.0074 
600.247, 0.0061 
600.597, 0.0063 
600.947, 0.0063 
601.297, 0.0055 
601.647, 0.0060 
601.997, 0.0045 
602.347, 0.0062 
602.697, 0.0068 
603.047, 0.0075 
603.397, 0.0071 
603.747, 0.0063 
604.096, 0.0070 
604.446, 0.0054 
604.796, 0.0064 
605.145, 0.0061 
605.495, 0.0062 
605.844, 0.0068 
606.194, 0.0055 
606.543, 0.0054 
606.893, 0.0062 
607.242, 0.0058 
607.591, 0.0068 
607.94, 0.0067 
608.29, 0.0065 
608.639, 0.0065 
608.988, 0.0065 
609.337, 0.0073 
609.686, 0.0070 
610.035, 0.0076 
610.384, 0.0096 
610.733, 0.0084 
611.081, 0.0088 
611.43, 0.0086 
611.779, 0.0077 
612.127, 0.0086 
612.476, 0.0077 
612.825, 0.0069 
613.173, 0.0073 
613.522, 0.0065 
613.87, 0.0074 
614.218, 0.0062 
614.567, 0.0066 
614.915, 0.0066 
615.263, 0.0068 
615.611, 0.0055 
615.96, 0.0064 
616.308, 0.0067 
616.656, 0.0064 
617.004, 0.0075 
617.352, 0.0062 
617.7, 0.0063 
618.047, 0.0070 
618.395, 0.0071 
618.743, 0.0066 
619.091, 0.0063 
619.438, 0.0069 
619.786, 0.0065 
620.134, 0.0052 
620.481, 0.0069 
620.829, 0.0060 
621.176, 0.0072 
621.523, 0.0064 
621.871, 0.0063 
622.218, 0.0058 
622.565, 0.0064 
622.912, 0.0071 
623.259, 0.0064 
623.607, 0.0061 
623.954, 0.0066 
624.301, 0.0060 
624.648, 0.0054 
624.994, 0.0064 
625.341, 0.0067 
625.688, 0.0057 
626.035, 0.0063 
626.382, 0.0072 
626.728, 0.0066 
627.075, 0.0062 
627.421, 0.0054 
627.768, 0.0062 
628.114, 0.0056 
628.461, 0.0072 
628.807, 0.0063 
629.154, 0.0065 
629.5, 0.0064 
629.846, 0.0068 
630.192, 0.0050 
630.538, 0.0067 
630.884, 0.0069 
631.231, 0.0071 
631.577, 0.0060 
631.922, 0.0052 
632.268, 0.0059 
632.614, 0.0070 
632.96, 0.0066 
633.306, 0.0057 
633.651, 0.0070 
633.997, 0.0064 
634.343, 0.0062 
634.688, 0.0061 
635.034, 0.0066 
635.379, 0.0059 
635.725, 0.0071 
636.07, 0.0069 
636.415, 0.0072 
636.761, 0.0065 
637.106, 0.0069 
637.451, 0.0056 
637.796, 0.0066 
638.141, 0.0061 
638.486, 0.0077 
638.831, 0.0064 
639.176, 0.0057 
639.521, 0.0063 
639.866, 0.0070 
640.211, 0.0067 
640.555, 0.0063 
640.9, 0.0048 
641.245, 0.0056 
641.589, 0.0067 
641.934, 0.0065 
642.278, 0.0064 
642.623, 0.0067 
642.967, 0.0080 
643.312, 0.0063 
643.656, 0.0069 
644, 0.0073 
644.344, 0.0059 
644.689, 0.0069 
645.033, 0.0073 
645.377, 0.0079 
645.721, 0.0058 
646.065, 0.0085 
646.409, 0.0062 
646.753, 0.0068 
647.096, 0.0071 
647.44, 0.0067 
647.784, 0.0078 
648.128, 0.0064 
648.471, 0.0071 
648.815, 0.0075 
649.158, 0.0061 
649.502, 0.0064 
649.845, 0.0070 
650.189, 0.0066 
650.532, 0.0078 
650.875, 0.0078 
651.218, 0.0064 
651.562, 0.0074 
651.905, 0.0089 
652.248, 0.0055 
652.591, 0.0069 
652.934, 0.0074 
653.277, 0.0067 
653.62, 0.0066 
653.963, 0.0074 
654.305, 0.0066 
654.648, 0.0070 
654.991, 0.0060 
655.334, 0.0056 
655.676, 0.0071 
656.019, 0.0068 
656.361, 0.0055 
656.704, 0.0065 
657.046, 0.0080 
657.389, 0.0073 
657.731, 0.0069 
658.073, 0.0060 
658.415, 0.0070 
658.757, 0.0066 
659.1, 0.0082 
659.442, 0.0082 
659.784, 0.0071 
660.126, 0.0060 
660.468, 0.0064 
660.809, 0.0073 
661.151, 0.0075 
661.493, 0.0069 
661.835, 0.0059 
662.177, 0.0086 
662.518, 0.0081 
662.86, 0.0059 
663.201, 0.0066 
663.543, 0.0069 
663.884, 0.0068 
664.226, 0.0067 
664.567, 0.0063 
664.908, 0.0073 
665.249, 0.0067 
665.591, 0.0066 
665.932, 0.0062 
666.273, 0.0084 
666.614, 0.0079 
666.955, 0.0074 
667.296, 0.0071 
667.637, 0.0067 
667.978, 0.0071 
668.318, 0.0070 
668.659, 0.0062 
669, 0.0078 
669.341, 0.0086 
669.681, 0.0077 
670.022, 0.0077 
670.362, 0.0083 
670.703, 0.0070 
671.043, 0.0062 
671.383, 0.0076 
671.724, 0.0081 
672.064, 0.0080 
672.404, 0.0079 
672.744, 0.0073 
673.085, 0.0065 
673.425, 0.0077 
673.765, 0.0092 
674.105, 0.0073 
674.444, 0.0067 
674.784, 0.0092 
675.124, 0.0087 
675.464, 0.0077 
675.804, 0.0068 
676.143, 0.0083 
676.483, 0.0072 
676.823, 0.0072 
677.162, 0.0080 
677.501, 0.0092 
677.841, 0.0073 
678.18, 0.0090 
678.52, 0.0075 
678.859, 0.0074 
679.198, 0.0076 
679.537, 0.0093 
679.876, 0.0063 
680.215, 0.0075 
680.555, 0.0072 
680.894, 0.0089 
681.232, 0.0088 
681.571, 0.0089 
681.91, 0.0069 
682.249, 0.0071 
682.588, 0.0083 
682.926, 0.0085 
683.265, 0.0081 
683.604, 0.0059 
683.942, 0.0068 
684.281, 0.0068 
684.619, 0.0089 
684.957, 0.0067 
685.296, 0.0086 
685.634, 0.0092 
685.972, 0.0077 
686.31, 0.0088 
686.649, 0.0082 
686.987, 0.0107 
687.325, 0.0080 
687.663, 0.0072 
688.001, 0.0085 
688.338, 0.0072 
688.676, 0.0090 
689.014, 0.0080 
689.352, 0.0074 
689.69, 0.0059 
690.027, 0.0073 
690.365, 0.0085 
690.702, 0.0070 
691.04, 0.0081 
691.377, 0.0069 
691.715, 0.0084 
692.052, 0.0096 
692.389, 0.0101 
692.726, 0.0078 
693.064, 0.0089 
693.401, 0.0091 
693.738, 0.0113 
694.075, 0.0097 
694.412, 0.0080 
694.749, 0.0086 
695.086, 0.0088 
695.423, 0.0086 
695.759, 0.0076 
696.096, 0.0077 
696.433, 0.0088 
696.769, 0.0086 
697.106, 0.0090 
697.443, 0.0084 
697.779, 0.0080 
698.116, 0.0077 
698.452, 0.0077 
698.788, 0.0094 
699.125, 0.0088 
699.461, 0.0087 
699.797, 0.0093 
700.133, 0.0076 
700.469, 0.0104 
700.805, 0.0085 
701.141, 0.0087 
701.477, 0.0079 
701.813, 0.0085 
702.149, 0.0089 
702.485, 0.0076 
702.82, 0.0097 
703.156, 0.0100 
703.492, 0.0077 
703.827, 0.0113 
704.163, 0.0089 
704.498, 0.0104 
704.834, 0.0099 
705.169, 0.0089 
705.505, 0.0106 
705.84, 0.0100 
706.175, 0.0097 
706.51, 0.0085 
706.845, 0.0082 
707.18, 0.0092 
707.515, 0.0097 
707.85, 0.0101 
708.185, 0.0112 
708.52, 0.0089 
708.855, 0.0103 
709.19, 0.0111 
709.525, 0.0110 
709.859, 0.0093 
710.194, 0.0095 
710.529, 0.0086 
710.863, 0.0101 
711.198, 0.0131 
711.532, 0.0110 
711.866, 0.0103 
712.201, 0.0097 
712.535, 0.0083 
712.869, 0.0103 
713.203, 0.0090 
713.537, 0.0073 
713.872, 0.0112 
714.206, 0.0101 
714.54, 0.0094 
714.873, 0.0072 
715.207, 0.0097 
715.541, 0.0104 
715.875, 0.0107 
716.209, 0.0112 
716.542, 0.0111 
716.876, 0.0107 
717.21, 0.0100 
717.543, 0.0094 
717.877, 0.0095 
718.21, 0.0108 
718.543, 0.0106 
718.877, 0.0109 
719.21, 0.0091 
719.543, 0.0122 
719.876, 0.0101 
720.209, 0.0110 
720.542, 0.0082 
720.875, 0.0105 
721.208, 0.0112 
721.541, 0.0102 
721.874, 0.0113 
722.207, 0.0129 
722.54, 0.0103 
722.872, 0.0117 
723.205, 0.0110 
723.538, 0.0100 
723.87, 0.0114 
724.203, 0.0113 
724.535, 0.0111 
724.868, 0.0106 
725.2, 0.0121 
725.532, 0.0099 
725.865, 0.0100 
726.197, 0.0122 
726.529, 0.0101 
726.861, 0.0102 
727.193, 0.0100 
727.525, 0.0121 
727.857, 0.0114 
728.189, 0.0122 
728.521, 0.0095 
728.853, 0.0102 
729.184, 0.0111 
729.516, 0.0117 
729.848, 0.0120 
730.179, 0.0111 
730.511, 0.0122 
730.842, 0.0120 
731.174, 0.0120 
731.505, 0.0140 
731.836, 0.0101 
732.168, 0.0124 
732.499, 0.0137 
732.83, 0.0106 
733.161, 0.0109 
733.492, 0.0123 
733.823, 0.0112 
734.154, 0.0130 
734.485, 0.0132 
734.816, 0.0118 
735.147, 0.0133 
735.478, 0.0109 
735.808, 0.0107 
736.139, 0.0123 
736.47, 0.0111 
736.8, 0.0125 
737.131, 0.0139 
737.461, 0.0116 
737.792, 0.0126 
738.122, 0.0133 
738.452, 0.0136 
738.782, 0.0138 
739.113, 0.0111 
739.443, 0.0135 
739.773, 0.0122 
740.103, 0.0146 
740.433, 0.0119 
740.763, 0.0124 
741.093, 0.0132 
741.423, 0.0144 
741.752, 0.0136 
742.082, 0.0111 
742.412, 0.0142 
742.742, 0.0144 
743.071, 0.0140 
743.401, 0.0117 
743.73, 0.0113 
744.06, 0.0123 
744.389, 0.0131 
744.718, 0.0127 
745.048, 0.0137 
745.377, 0.0145 
745.706, 0.0124 
746.035, 0.0134 
746.364, 0.0112 
746.693, 0.0112 
747.022, 0.0139 
747.351, 0.0142 
747.68, 0.0140 
748.009, 0.0127 
748.338, 0.0127 
748.666, 0.0137 
748.995, 0.0149 
749.323, 0.0115 
749.652, 0.0139 
749.981, 0.0151 
750.309, 0.0128 
750.637, 0.0141 
750.966, 0.0128 
751.294, 0.0128 
751.622, 0.0149 
751.95, 0.0158 
752.279, 0.0153 
752.607, 0.0143 
752.935, 0.0126 
753.263, 0.0157 
753.591, 0.0145 
753.919, 0.0127 
754.246, 0.0139 
754.574, 0.0109 
754.902, 0.0139 
755.23, 0.0151 
755.557, 0.0139 
755.885, 0.0130 
756.212, 0.0144 
756.54, 0.0143 
756.867, 0.0132 
757.195, 0.0108 
757.522, 0.0120 
757.849, 0.0155 
758.176, 0.0161 
758.503, 0.0148 
758.831, 0.0140 
759.158, 0.0123 
759.485, 0.0148 
759.812, 0.0141 
760.138, 0.0145 
760.465, 0.0145 
760.792, 0.0181 
761.119, 0.0167 
761.446, 0.0103 
761.772, 0.0168 
762.099, 0.0183 
762.425, 0.0130 
762.752, 0.0190 
763.078, 0.0144 
763.405, 0.0143 
763.731, 0.0134 
764.057, 0.0174 
764.383, 0.0122 
764.71, 0.0162 
765.036, 0.0096 
765.362, 0.0175 
765.688, 0.0170 
766.014, 0.0142 
766.34, 0.0154 
766.665, 0.0157 
766.991, 0.0199 
767.317, 0.0170 
767.643, 0.0170 
767.968, 0.0173 
768.294, 0.0160 
768.619, 0.0139 
768.945, 0.0144 
769.27, 0.0145 
769.596, 0.0140 
769.921, 0.0167 
770.246, 0.0152 
770.572, 0.0182 
770.897, 0.0164 
771.222, 0.0163 
771.547, 0.0168 
771.872, 0.0144 
772.197, 0.0169 
772.522, 0.0161 
772.847, 0.0137 
773.171, 0.0165 
773.496, 0.0153 
773.821, 0.0176 
774.146, 0.0170 
774.47, 0.0150 
774.795, 0.0172 
775.119, 0.0155 
775.444, 0.0178 
775.768, 0.0171 
776.092, 0.0140 
776.417, 0.0164 
776.741, 0.0194 
777.065, 0.0175 
777.389, 0.0193 
777.713, 0.0168 
778.037, 0.0173 
778.361, 0.0194 
778.685, 0.0167 
779.009, 0.0199 
779.333, 0.0196 
779.657, 0.0141 
779.98, 0.0183 
780.304, 0.0190 
780.627, 0.0194 
780.951, 0.0175 
781.274, 0.0178 
781.598, 0.0186 
781.921, 0.0154 
782.245, 0.0195 
782.568, 0.0170 
782.891, 0.0203 
783.214, 0.0182 
783.537, 0.0214 
783.861, 0.0171 
784.184, 0.0179 
784.506, 0.0188 
784.829, 0.0158 
785.152, 0.0169 
785.475, 0.0177 
785.798, 0.0190 
786.12, 0.0180 
786.443, 0.0203 
786.766, 0.0206 
787.088, 0.0154 
787.411, 0.0216 
787.733, 0.0188 
788.056, 0.0199 
788.378, 0.0197 
788.7, 0.0178 
789.022, 0.0182 
789.345, 0.0183 
789.667, 0.0191 
789.989, 0.0167 
790.311, 0.0216 
790.633, 0.0162 
790.955, 0.0225 
791.276, 0.0229 
791.598, 0.0179 
791.92, 0.0188 
792.242, 0.0163 
792.563, 0.0168 
792.885, 0.0198 
793.206, 0.0164 
793.528, 0.0231 
793.849, 0.0186 
794.171, 0.0198 
794.492, 0.0183 
794.813, 0.0190 
795.134, 0.0147 
795.456, 0.0201 
795.777, 0.0204 
796.098, 0.0154 
796.419, 0.0198 
796.74, 0.0197 
797.061, 0.0199 
797.381, 0.0167 
797.702, 0.0187 
798.023, 0.0205 
798.344, 0.0198 
798.664, 0.0192 
798.985, 0.0192 
799.305, 0.0160 
799.626, 0.0214 
799.946, 0.0215 
800.267, 0.0177 
800.587, 0.0197 
800.907, 0.0191 
801.227, 0.0230 
801.548, 0.0219 
801.868, 0.0223 
802.188, 0.0144 
802.508, 0.0214 
802.828, 0.0225 
803.147, 0.0217 
803.467, 0.0196 
803.787, 0.0204 
804.107, 0.0225 
804.426, 0.0224 
804.746, 0.0149 
805.066, 0.0181 
805.385, 0.0211 
805.705, 0.0268 
806.024, 0.0244 
806.343, 0.0212 
806.663, 0.0254 
806.982, 0.0176 
807.301, 0.0216 
807.62, 0.0186 
807.939, 0.0182 
808.258, 0.0211 
808.577, 0.0190 
808.896, 0.0223 
809.215, 0.0205 
809.534, 0.0237 
809.852, 0.0284 
810.171, 0.0271 
810.49, 0.0258 
810.808, 0.0268 
811.127, 0.0218 
811.445, 0.0241 
811.764, 0.0229 
812.082, 0.0268 
812.401, 0.0251 
812.719, 0.0259 
813.037, 0.0216 
813.355, 0.0233 
813.673, 0.0228 
813.991, 0.0275 
814.309, 0.0257 
814.627, 0.0226 
814.945, 0.0239 
815.263, 0.0267 
815.581, 0.0251 
815.899, 0.0228 
816.216, 0.0280 
816.534, 0.0299 
816.851, 0.0262 
817.169, 0.0209 
817.486, 0.0246 
817.804, 0.0197 
818.121, 0.0224 
818.438, 0.0248 
818.756, 0.0203 
819.073, 0.0252 
819.39, 0.0251 
819.707, 0.0245 
820.024, 0.0242 
820.341, 0.0208 
820.658, 0.0224 
820.975, 0.0245 
821.292, 0.0264 
821.608, 0.0286 
821.925, 0.0252 
822.242, 0.0320 
822.558, 0.0286 
822.875, 0.0315 
823.191, 0.0291 
823.508, 0.0247 
823.824, 0.0286 
824.141, 0.0258 
824.457, 0.0354 
824.773, 0.0276 
825.089, 0.0254 
825.405, 0.0251 
825.721, 0.0277 
826.037, 0.0223 
826.353, 0.0299 
826.669, 0.0241 
826.985, 0.0299 
827.301, 0.0237 
827.617, 0.0270 
827.932, 0.0273 
828.248, 0.0313 
828.563, 0.0300 
828.879, 0.0330 
829.194, 0.0270 
829.51, 0.0276 
829.825, 0.0289 
830.14, 0.0270 
830.456, 0.0256 
830.771, 0.0264 
831.086, 0.0296 
831.401, 0.0299 
831.716, 0.0307 
832.031, 0.0289 
832.346, 0.0241 
832.661, 0.0319 
832.976, 0.0328 
833.29, 0.0312 
833.605, 0.0294 
833.92, 0.0280 
834.234, 0.0329 
834.549, 0.0300 
834.863, 0.0226 
835.178, 0.0300 
835.492, 0.0317 
835.806, 0.0298 
836.121, 0.0248 
836.435, 0.0238 
836.749, 0.0319 
837.063, 0.0293 
837.377, 0.0383 
837.691, 0.0268 
838.005, 0.0308 
838.319, 0.0295 
838.633, 0.0301 
838.946, 0.0371 
839.26, 0.0359 
839.574, 0.0316 
839.887, 0.0376 
840.201, 0.0338 
840.514, 0.0332 
840.828, 0.0321 
841.141, 0.0261 
841.455, 0.0383 
841.768, 0.0349 
842.081, 0.0324 
842.394, 0.0323 
842.707, 0.0341 
843.02, 0.0328 
843.333, 0.0334 
843.646, 0.0323 
843.959, 0.0376 
844.272, 0.0333 
844.585, 0.0367 
844.898, 0.0331 
845.21, 0.0369 
845.523, 0.0363 
845.835, 0.0387 
846.148, 0.0369 
846.46, 0.0383 
846.773, 0.0397 
847.085, 0.0314 
847.397, 0.0300 
847.71, 0.0403 
848.022, 0.0397 
848.334, 0.0259 
848.646, 0.0369 
848.958, 0.0378 
849.27, 0.0290 
849.582, 0.0407 
849.894, 0.0369 
850.205, 0.0304 
850.517, 0.0353 
850.829, 0.0293 
851.141, 0.0444 
851.452, 0.0354 
851.764, 0.0388 
852.075, 0.0473 
852.386, 0.0405 
852.698, 0.0390 
853.009, 0.0268 
853.32, 0.0390 
853.632, 0.0392 
853.943, 0.0368 
854.254, 0.0417 
854.565, 0.0416 
854.876, 0.0473 
855.187, 0.0509 
855.497, 0.0426 
855.808, 0.0405 
856.119, 0.0429 
856.43, 0.0437 
856.74, 0.0358 
857.051, 0.0391 
857.361, 0.0376 
857.672, 0.0423 
857.982, 0.0445 
858.293, 0.0400 
858.603, 0.0393 
858.913, 0.0415 
859.223, 0.0452 
859.533, 0.0484 
859.844, 0.0432 
860.154, 0.0404 
860.464, 0.0376 
860.773, 0.0347 
861.083, 0.0424 
861.393, 0.0350 
861.703, 0.0379 
862.013, 0.0390 
862.322, 0.0413 
862.632, 0.0439 
862.941, 0.0478 
863.251, 0.0356 
863.56, 0.0382 
863.869, 0.0500 
864.179, 0.0502 
864.488, 0.0428 
864.797, 0.0424 
865.106, 0.0406 
865.415, 0.0449 
865.724, 0.0426 
866.033, 0.0466 
866.342, 0.0550 
866.651, 0.0496 
866.96, 0.0440 
867.269, 0.0455 
867.577, 0.0509 
867.886, 0.0382 
868.195, 0.0447 
868.503, 0.0480 
868.812, 0.0401 
869.12, 0.0450 
869.428, 0.0483 
869.737, 0.0482 
870.045, 0.0398 
870.353, 0.0386 
870.661, 0.0406 
870.969, 0.0492 
871.277, 0.0550 
871.585, 0.0557 
871.893, 0.0467 
872.201, 0.0594 
872.509, 0.0532 
872.817, 0.0513 
873.124, 0.0494 
873.432, 0.0435 
873.739, 0.0445 
874.047, 0.0567 
874.354, 0.0522 
874.662, 0.0506 
874.969, 0.0430 
875.276, 0.0570 
875.584, 0.0524 
875.891, 0.0507 
876.198, 0.0517 
876.505, 0.0508 
876.812, 0.0568 
877.119, 0.0437 
877.426, 0.0586 
877.733, 0.0578 
878.04, 0.0581 
878.346, 0.0577 
878.653, 0.0573 
878.96, 0.0468 
879.266, 0.0651 
879.573, 0.0575 
879.879, 0.0574 
880.185, 0.0573 
880.492, 0.0690 
880.798, 0.0534 
881.104, 0.0521 
881.411, 0.0744 
881.717, 0.0631 
882.023, 0.0484 
882.329, 0.0733 
882.635, 0.0576 
882.941, 0.0515 
883.246, 0.0682 
883.552, 0.0530 
883.858, 0.0520 
884.164, 0.0607 
884.469, 0.0583 
884.775, 0.0581 
885.08, 0.0531 
885.386, 0.0681 
885.691, 0.0608 
885.996, 0.0579 
886.302, 0.0699 
886.607, 0.0565 
886.912, 0.0577 
887.217, 0.0633 
887.522, 0.0719 
887.827, 0.0735 
888.132, 0.0677 
888.437, 0.0564 
888.742, 0.0752 
889.046, 0.0704 
889.351, 0.0753 
889.656, 0.0676 
889.96, 0.0679 
890.265, 0.0558 
890.569, 0.0569 
890.874, 0.0710 
891.178, 0.0664 
891.483, 0.0791 
891.787, 0.0720 
892.091, 0.0717 
892.395, 0.0678 
892.699, 0.0733 
893.003, 0.0767 
893.307, 0.0734 
893.611, 0.0575 
893.915, 0.0702 
894.219, 0.0626 
894.523, 0.0671 
894.826, 0.0472 
895.13, 0.0733 
895.433, 0.0603 
895.737, 0.0693 
896.04, 0.0679 
896.344, 0.0667 
896.647, 0.0564 
896.95, 0.0805 
897.254, 0.0622 
897.557, 0.0940 
897.86, 0.0760 
898.163, 0.0641 
898.466, 0.0652 
898.769, 0.0638 
899.072, 0.0853 
899.375, 0.0764 
899.677, 0.0745 
899.98, 0.0731 
900.283, 0.0621 
900.585, 0.0832 
900.888, 0.0798 
901.191, 0.0533 
901.493, 0.0705 
901.795, 0.0670 
902.098, 0.0828 
902.4, 0.0793 
902.702, 0.0733 
903.004, 0.0693 
903.306, 0.0701 
903.608, 0.0592 
903.91, 0.0731 
904.212, 0.0818 
904.514, 0.0650 
904.816, 0.0764 
905.118, 0.0632 
905.42, 0.0758 
905.721, 0.0814 
906.023, 0.0730 
906.324, 0.0716 
906.626, 0.0670 
906.927, 0.0737 
907.228, 0.0789 
907.53, 0.0880 
907.831, 0.0873 
908.132, 0.0832 
908.433, 0.0725 
908.734, 0.0829 
909.035, 0.0744 
909.336, 0.0867 
909.637, 0.0768 
909.938, 0.0852 
910.239, 0.0873 
910.54, 0.0843 
910.84, 0.0760 
911.141, 0.0665 
911.441, 0.1037 
911.742, 0.0801 
912.042, 0.0940 
912.343, 0.0973 
912.643, 0.0745 
912.943, 0.0868 
913.244, 0.0843 
913.544, 0.0726 
913.844, 0.0875 
914.144, 0.0801 
914.444, 0.0941 
914.744, 0.0853 
915.044, 0.0809 
915.343, 0.0714 
915.643, 0.0870 
915.943, 0.0908 
916.243, 0.0812 
916.542, 0.0753 
916.842, 0.0732 
917.141, 0.1023 
917.441, 0.0983 
917.74, 0.0963 
918.039, 0.1055 
918.338, 0.0955 
918.638, 0.0867 
918.937, 0.1034 
919.236, 0.0959 
919.535, 0.0917 
919.834, 0.0716 
920.133, 0.0839 
920.431, 0.0845 
920.73, 0.1088 
921.029, 0.0800 
921.328, 0.0955 
921.626, 0.0869 
921.925, 0.0977 
922.223, 0.0961 
922.522, 0.0741 
922.82, 0.1129 
923.118, 0.0857 
923.417, 0.1035 
923.715, 0.0893 
924.013, 0.1060 
924.311, 0.1099 
924.609, 0.1068 
924.907, 0.0880 
925.205, 0.1091 
925.503, 0.1153 
925.801, 0.1035 
926.098, 0.1083 
926.396, 0.1236 
926.694, 0.0977 
926.991, 0.1040 
927.289, 0.0948 
927.586, 0.1196 
927.884, 0.0796 
928.181, 0.1432 
928.478, 0.1408 
928.775, 0.0941 
929.073, 0.1068 
929.37, 0.1025 
929.667, 0.1252 
929.964, 0.1192 
930.261, 0.1310 
930.557, 0.1331 
930.854, 0.1387 
931.151, 0.1244 
931.448, 0.1237 
931.744, 0.1453 
932.041, 0.1428 
932.337, 0.1659 
932.634, 0.1149 
932.93, 0.1533 
933.227, 0.1149 
933.523, 0.1257 
933.819, 0.1405 
934.115, 0.1235 
934.412, 0.1643 
934.708, 0.1504 
935.004, 0.1364 
935.3, 0.1200 
935.595, 0.1343 
935.891, 0.1249 
936.187, 0.1436 
936.483, 0.1341 
936.778, 0.1161 
937.074, 0.1364 
937.369, 0.1541 
937.665, 0.1741 
937.96, 0.1390 
938.256, 0.1432 
938.551, 0.1433 
938.846, 0.1861 
939.141, 0.1548 
939.437, 0.1594 
939.732, 0.1631 
940.027, 0.1586 
940.322, 0.1374 
940.617, 0.1300 
940.911, 0.1902 
941.206, 0.2050 
941.501, 0.1576 
941.796, 0.1430 
942.09, 0.1762 
942.385, 0.1367 
942.679, 0.1901 
942.974, 0.1925 
943.268, 0.1889 
943.562, 0.1815 
943.857, 0.1252 
944.151, 0.1851 
944.445, 0.2061 
944.739, 0.1838 
945.033, 0.1695 
945.327, 0.1818 
945.621, 0.1698 
945.915, 0.2016 
946.208, 0.1994 
946.502, 0.1510 
946.796, 0.2563 
947.089, 0.2311 
947.383, 0.1998 
947.676, 0.1755 
947.97, 0.2147 
948.263, 0.2235 
948.557, 0.2059 
948.85, 0.2369 
949.143, 0.1925 
949.436, 0.1893 
949.729, 0.2043 
950.022, 0.2226 
950.315, 0.2216 
950.608, 0.1662 
950.901, 0.2431 
951.194, 0.2179 
951.487, 0.1928 
951.779, 0.2345 
952.072, 0.2363 
952.364, 0.2222 
952.657, 0.1964 
952.949, 0.2545 
953.242, 0.2166 
953.534, 0.1951 
953.826, 0.2600 
954.118, 0.2624 
954.411, 0.2353 
954.703, 0.2267 
954.995, 0.2236 
955.287, 0.2150 
955.579, 0.2602 
955.87, 0.2735 
956.162, 0.2411 
956.454, 0.2953 
956.746, 0.2287 
957.037, 0.2419 
957.329, 0.2151 
957.62, 0.2646 
957.912, 0.2903 
958.203, 0.2518 
958.494, 0.2601 
958.786, 0.2725 
959.077, 0.2427 
959.368, 0.2003 
959.659, 0.2304 
959.95, 0.2386 
960.241, 0.3173 
960.532, 0.3286 
960.823, 0.3134 
961.114, 0.2845 
961.404, 0.2890 
961.695, 0.3453 
961.986, 0.2995 
962.276, 0.2911 
962.567, 0.2557 
962.857, 0.3381 
963.147, 0.3616 
963.438, 0.2802 
963.728, 0.3259 
964.018, 0.3236 
964.308, 0.3212 
964.598, 0.4042 
964.888, 0.3274 
965.178, 0.3135 
965.468, 0.3183 
965.758, 0.3386 
966.048, 0.3053 
966.338, 0.3492 
966.627, 0.4137 
966.917, 0.4025 
967.206, 0.3244 
967.496, 0.3067 
967.785, 0.3273 
968.075, 0.4234 
968.364, 0.3456 
968.653, 0.3651 
968.942, 0.3629 
969.232, 0.3493 
969.521, 0.4023 
969.81, 0.3299 
970.099, 0.3472 
970.388, 0.4263 
970.676, 0.3997 
970.965, 0.3379 
971.254, 0.3172 
971.543, 0.3534 
971.831, 0.4355 
972.12, 0.5012 
972.408, 0.4622 
972.697, 0.4346 
972.985, 0.4145 
973.273, 0.3905 
973.561, 0.4577 
973.85, 0.4393 
974.138, 0.5058 
974.426, 0.4480 
974.714, 0.4298 
975.002, 0.3988 
975.29, 0.3828 
975.577, 0.4482 
975.865, 0.4277 
976.153, 0.4105 
976.441, 0.3980 
976.728, 0.4721 
977.016, 0.5344 
977.303, 0.4785 
977.59, 0.4935 
977.878, 0.5034 
978.165, 0.4858 
978.452, 0.4948 
978.74, 0.5686 
979.027, 0.5236 
979.314, 0.5539 
979.601, 0.5401 
979.888, 0.4602 
980.174, 0.5952 
980.461, 0.5418 
980.748, 0.5289 
981.035, 0.5478 
981.321, 0.5851 
981.608, 0.4714 
981.894, 0.4834 
982.181, 0.5090 
982.467, 0.5795 
982.754, 0.5748 
983.04, 0.5356 
983.326, 0.5532 
983.612, 0.5700 
983.898, 0.7007 
984.184, 0.5674 
984.47, 0.5377 
984.756, 0.5594 
985.042, 0.7078 
985.328, 0.5776 
985.614, 0.6907 
985.899, 0.6356 
986.185, 0.5875 
986.47, 0.6540 
986.756, 0.6630 
987.041, 0.5858 
987.327, 0.6790 
987.612, 0.6654 
987.897, 0.6954 
988.182, 0.5959 
988.468, 0.6258 
988.753, 0.6975 
989.038, 0.7422 
989.323, 0.8207 
989.607, 0.6134 
989.892, 0.5963 
990.177, 0.6972 
990.462, 0.6005 
990.746, 0.6516 
991.031, 0.7313 
991.315, 0.7596 
991.6, 0.7209 
991.884, 0.8150 
992.169, 0.8480 
992.453, 0.6690 
992.737, 0.8890 
993.021, 0.6524 
993.305, 0.8903 
993.59, 0.9685 
993.874, 0.7896 
994.157, 0.7680 
994.441, 0.8491 
994.725, 0.8943 
995.009, 0.8604 
995.293, 0.9318 
995.576, 0.6321 
995.86, 0.8621 
996.143, 0.9564 
996.427, 0.7914 
996.71, 0.8223 
996.993, 0.9995 
997.277, 0.7972 
997.56, 0.9414 
997.843, 0.9532 
998.126, 0.9782 
998.409, 0.9541 
998.692, 1.0234 
998.975, 0.9672 
999.258, 1.2930 
999.541, 1.0391 
999.823, 1.0046 
1000.106, 0.8523 
1000.388, 1.0299 
1000.671, 1.1338 
1000.954, 0.9499 
1001.236, 1.0458 
1001.518, 0.9436 
1001.801, 0.9646 
1002.083, 1.2568 
1002.365, 1.1434 
1002.647, 1.3843 
1002.929, 1.0980 
1003.211, 1.0674 
1003.493, 0.9485 
1003.775, 0.9781 
1004.057, 1.2074 
1004.338, 0.9413 
1004.62, 1.4299 
1004.902, 1.1688 
1005.183, 1.4178 
1005.465, 1.3222 
1005.746, 1.0703 
1006.028, 1.3475 
1006.309, 1.2786 
1006.59, 1.3354 
1006.871, 1.2746 
1007.153, 1.0583 
1007.434, 1.3390 
1007.715, 1.2011 
1007.996, 1.2147 
1008.277, 1.3203 
1008.557, 1.2311 
1008.838, 1.3948 
1009.119, 1.6017 
1009.4, 1.5011 
1009.68, 1.4726 
1009.961, 1.4336 
1010.241, 1.5711 
1010.522, 1.2779 
1010.802, 1.6237 
1011.082, 1.4900 
1011.362, 1.6122 
1011.643, 1.4446 
1011.923, 1.4261 
1012.203, 1.6297 
1012.483, 1.3270 
1012.763, 1.4195 
1013.042, 1.6837 
1013.322, 1.5812 
1013.602, 1.9577 
1013.882, 1.7289 
1014.161, 1.9435 
1014.441, 1.7790 
1014.72, 1.8372 
1015, 1.4128 
1015.279, 1.9260 
1015.558, 1.8007 
1015.838, 1.6798 
1016.117, 1.7621 
1016.396, 1.4793 
1016.675, 1.8398 
1016.954, 1.8889 
1017.233, 1.5216 
1017.512, 1.8190 
1017.791, 1.9719 
1018.07, 2.1670 
1018.348, 1.8348 
1018.627, 1.8338 
1018.905, 1.8397 
1019.184, 1.9130 
1019.462, 2.1881 
1019.741, 1.9511 
1020.019, 1.7897 
1020.297, 1.9518 
1020.576, 2.2600 
1020.854, 1.9743 
1021.132, 2.2084 
1021.41, 2.2073 
1021.688, 2.2062 
