Wavelength, W/m2 
346.47,0.4056
346.85,0.221
347.23,0.142
347.611,0.1092
347.991,0.0725
348.371,0.0563
348.751,0.0744
349.131,0.0487
349.511,0.0684
349.891,0.0511
350.27,0.0512
350.65,0.0383
351.03,0.0399
351.41,0.0434
351.79,0.043
352.169,0.0552
352.549,0.0563
352.928,0.0534
353.308,0.049
353.687,0.0438
354.067,0.0434
354.446,0.0544
354.826,0.0504
355.205,0.0576
355.584,0.0571
355.964,0.0538
356.343,0.0493
356.722,0.0439
357.101,0.0545
357.48,0.0483
357.859,0.0381
358.238,0.0375
358.617,0.0457
358.996,0.0484
359.375,0.042
359.754,0.0454
360.133,0.0455
360.512,0.0508
360.891,0.041
361.269,0.0435
361.648,0.0408
362.027,0.0419
362.405,0.04
362.784,0.0436
363.162,0.0461
363.541,0.0429
363.919,0.0424
364.298,0.0368
364.676,0.0442
365.054,0.0322
365.433,0.0325
365.811,0.0422
366.189,0.0321
366.567,0.0355
366.945,0.0271
367.323,0.0303
367.701,0.0364
368.079,0.0326
368.457,0.0322
368.835,0.0291
369.213,0.0358
369.591,0.0348
369.969,0.0333
370.346,0.0295
370.724,0.0296
371.102,0.0308
371.479,0.0351
371.857,0.0285
372.235,0.0311
372.612,0.034
372.99,0.0308
373.367,0.0308
373.744,0.0324
374.122,0.0356
374.499,0.0284
374.876,0.0342
375.254,0.0314
375.631,0.0318
376.008,0.0303
376.385,0.0311
376.762,0.0283
377.139,0.0294
377.516,0.0317
377.893,0.0245
378.27,0.0263
378.647,0.0333
379.024,0.0258
379.4,0.0318
379.777,0.0244
380.154,0.0276
380.53,0.0274
380.907,0.0235
381.284,0.02
381.66,0.0265
382.037,0.0322
382.413,0.0247
382.79,0.0258
383.166,0.0258
383.542,0.028
383.919,0.0273
384.295,0.028
384.671,0.0196
385.047,0.0275
385.423,0.0217
385.799,0.0181
386.176,0.0222
386.552,0.0166
386.928,0.0161
387.303,0.026
387.679,0.0199
388.055,0.0226
388.431,0.0195
388.807,0.0196
389.183,0.0215
389.558,0.025
389.934,0.0202
390.309,0.0185
390.685,0.0169
391.061,0.0198
391.436,0.0228
391.811,0.0186
392.187,0.0203
392.562,0.0229
392.938,0.019
393.313,0.0183
393.688,0.0172
394.063,0.0234
394.438,0.019
394.814,0.0202
395.189,0.0142
395.564,0.0193
395.939,0.0165
396.314,0.0174
396.689,0.0183
397.063,0.0163
397.438,0.0165
397.813,0.0186
398.188,0.0205
398.563,0.0202
398.937,0.0197
399.312,0.0187
399.686,0.0169
400.061,0.017
400.435,0.0199
400.81,0.0186
401.184,0.0173
401.559,0.0124
401.933,0.0134
402.307,0.019
402.682,0.0136
403.056,0.016
403.43,0.0157
403.804,0.0144
404.178,0.0186
404.552,0.0131
404.926,0.0144
405.3,0.0167
405.674,0.0165
406.048,0.0153
406.422,0.0172
406.796,0.016
407.169,0.0149
407.543,0.0149
407.917,0.0135
408.291,0.0171
408.664,0.0142
409.038,0.0156
409.411,0.014
409.785,0.0139
410.158,0.0154
410.531,0.0156
410.905,0.0144
411.278,0.0148
411.651,0.0137
412.025,0.0161
412.398,0.0164
412.771,0.0154
413.144,0.0135
413.517,0.0113
413.89,0.0175
414.263,0.0109
414.636,0.0141
415.009,0.0112
415.382,0.0095
415.755,0.0122
416.127,0.013
416.5,0.0111
416.873,0.0153
417.245,0.0126
417.618,0.0145
417.991,0.0133
418.363,0.0121
418.736,0.0126
419.108,0.014
419.48,0.0139
419.853,0.0123
420.225,0.0154
420.597,0.0154
420.97,0.0135
421.342,0.0131
421.714,0.0132
422.086,0.0123
422.458,0.0136
422.83,0.0146
423.202,0.0126
423.574,0.0134
423.946,0.0127
424.318,0.0123
424.69,0.0121
425.061,0.016
425.433,0.0119
425.805,0.0133
426.177,0.0117
426.548,0.0135
426.92,0.0098
427.291,0.0133
427.663,0.0143
428.034,0.0153
428.406,0.0123
428.777,0.0128
429.148,0.0148
429.519,0.0112
429.891,0.0127
430.262,0.0117
430.633,0.0121
431.004,0.0118
431.375,0.0101
431.746,0.0131
432.117,0.0121
432.488,0.0123
432.859,0.0141
433.23,0.0106
433.601,0.0101
433.971,0.0118
434.342,0.0115
434.713,0.0129
435.083,0.0155
435.454,0.0157
435.825,0.0134
436.195,0.0125
436.566,0.0141
436.936,0.0126
437.306,0.0136
437.677,0.0116
438.047,0.0109
438.417,0.014
438.788,0.0126
439.158,0.0099
439.528,0.0112
439.898,0.0111
440.268,0.0105
440.638,0.013
441.008,0.0106
441.378,0.0097
441.748,0.0143
442.118,0.009
442.487,0.0125
442.857,0.0113
443.227,0.011
443.597,0.0102
443.966,0.0129
444.336,0.0099
444.705,0.0117
445.075,0.0113
445.444,0.012
445.814,0.0105
446.183,0.0098
446.552,0.0124
446.922,0.0121
447.291,0.0119
447.66,0.0101
448.029,0.0119
448.398,0.0112
448.768,0.0123
449.137,0.0119
449.506,0.0084
449.875,0.0106
450.243,0.0114
450.612,0.0109
450.981,0.0101
451.35,0.0111
451.719,0.0105
452.087,0.011
452.456,0.012
452.825,0.0111
453.193,0.0105
453.562,0.0107
453.93,0.0109
454.299,0.0102
454.667,0.0094
455.035,0.0119
455.404,0.0091
455.772,0.0118
456.14,0.0113
456.508,0.0088
456.877,0.0099
457.245,0.0114
457.613,0.0105
457.981,0.011
458.349,0.0102
458.717,0.0087
459.085,0.0096
459.452,0.0121
459.82,0.0107
460.188,0.0092
460.556,0.0104
460.923,0.0105
461.291,0.0094
461.659,0.0097
462.026,0.0118
462.394,0.0114
462.761,0.0116
463.128,0.0095
463.496,0.0099
463.863,0.0092
464.23,0.0113
464.598,0.012
464.965,0.0102
465.332,0.0088
465.699,0.0114
466.066,0.0118
466.433,0.01
466.8,0.0092
467.167,0.0099
467.534,0.0088
467.901,0.009
468.268,0.0089
468.635,0.0095
469.001,0.0107
469.368,0.0091
469.735,0.0097
470.101,0.0096
470.468,0.0094
470.834,0.0093
471.201,0.0116
471.567,0.0103
471.934,0.0095
472.3,0.0078
472.666,0.0079
473.032,0.0096
473.399,0.0097
473.765,0.0093
474.131,0.0098
474.497,0.0095
474.863,0.0093
475.229,0.0094
475.595,0.0109
475.961,0.0104
476.327,0.0095
476.693,0.0098
477.058,0.0086
477.424,0.0101
477.79,0.0096
478.156,0.0092
478.521,0.0088
478.887,0.0089
479.252,0.0093
479.618,0.0089
479.983,0.0089
480.348,0.0084
480.714,0.009
481.079,0.0082
481.444,0.0089
481.81,0.0092
482.175,0.0077
482.54,0.0092
482.905,0.0097
483.27,0.0091
483.635,0.0091
484,0.009
484.365,0.0088
484.73,0.0095
485.095,0.0104
485.459,0.0097
485.824,0.0095
486.189,0.0101
486.553,0.01
486.918,0.0102
487.283,0.0085
487.647,0.01
488.012,0.0108
488.376,0.0107
488.74,0.01
489.105,0.0114
489.469,0.0107
489.833,0.0103
490.198,0.011
490.562,0.0116
490.926,0.0116
491.29,0.0124
491.654,0.0125
492.018,0.0125
492.382,0.0131
492.746,0.012
493.11,0.0128
493.474,0.0131
493.837,0.0118
494.201,0.013
494.565,0.0139
494.928,0.0136
495.292,0.0133
495.656,0.0134
496.019,0.0153
496.383,0.0158
496.746,0.0155
497.109,0.0158
497.473,0.0152
497.836,0.0161
498.199,0.0174
498.563,0.0176
498.926,0.0182
499.289,0.0188
499.652,0.0184
500.015,0.0195
500.378,0.0189
500.741,0.0193
501.104,0.0217
501.467,0.0224
501.829,0.0229
502.192,0.0212
502.555,0.0247
502.918,0.0248
503.28,0.0251
503.643,0.0266
504.005,0.0266
504.368,0.0282
504.73,0.0265
505.093,0.0302
505.455,0.0301
505.817,0.0304
506.18,0.0313
506.542,0.0336
506.904,0.03
507.266,0.0339
507.628,0.0342
507.991,0.0354
508.353,0.0346
508.715,0.0351
509.076,0.0368
509.438,0.038
509.8,0.0393
510.162,0.0399
510.524,0.0413
510.885,0.0406
511.247,0.0429
511.609,0.043
511.97,0.0434
512.332,0.045
512.693,0.0447
513.055,0.0434
513.416,0.0458
513.778,0.0432
514.139,0.0464
514.5,0.0478
514.861,0.0464
515.223,0.0467
515.584,0.0467
515.945,0.0464
516.306,0.0471
516.667,0.0484
517.028,0.0491
517.389,0.0469
517.75,0.0464
518.11,0.0468
518.471,0.0459
518.832,0.046
519.193,0.0461
519.553,0.0456
519.914,0.0451
520.274,0.0448
520.635,0.0446
520.995,0.0448
521.356,0.0426
521.716,0.0421
522.076,0.0424
522.437,0.041
522.797,0.0413
523.157,0.0391
523.517,0.0384
523.877,0.0385
524.238,0.0376
524.598,0.0379
524.958,0.0359
525.317,0.0356
525.677,0.0372
526.037,0.0341
526.397,0.0343
526.757,0.0341
527.116,0.0325
527.476,0.0325
527.836,0.0322
528.195,0.0304
528.555,0.0314
528.914,0.0308
529.274,0.0302
529.633,0.0307
529.993,0.0298
530.352,0.0284
530.711,0.0273
531.07,0.0269
531.429,0.027
531.789,0.0264
532.148,0.028
532.507,0.0267
532.866,0.0271
533.225,0.0265
533.584,0.0255
533.942,0.0242
534.301,0.0245
534.66,0.0243
535.019,0.0228
535.377,0.0228
535.736,0.0217
536.095,0.0231
536.453,0.0216
536.812,0.021
537.17,0.0216
537.528,0.0214
537.887,0.0216
538.245,0.021
538.603,0.0207
538.962,0.02
539.32,0.0196
539.678,0.0199
540.036,0.0192
540.394,0.0206
540.752,0.0194
541.11,0.019
541.468,0.0187
541.826,0.0192
542.184,0.0175
542.541,0.0184
542.899,0.0175
543.257,0.0173
543.614,0.0166
543.972,0.0164
544.33,0.0159
544.687,0.0169
545.045,0.0184
545.402,0.0183
545.759,0.019
546.117,0.0162
546.474,0.0161
546.831,0.015
547.188,0.0146
547.546,0.0142
547.903,0.0135
548.26,0.0142
548.617,0.0127
548.974,0.0123
549.331,0.0132
549.687,0.0123
550.044,0.0125
550.401,0.0138
550.758,0.012
551.114,0.0119
551.471,0.0113
551.828,0.0109
552.184,0.0112
552.541,0.0116
552.897,0.0116
553.254,0.0119
553.61,0.0101
553.966,0.0103
554.323,0.0101
554.679,0.0107
555.035,0.01
555.391,0.0104
555.747,0.0105
556.103,0.0101
556.459,0.0104
556.815,0.0102
557.171,0.0101
557.527,0.009
557.883,0.01
558.239,0.009
558.594,0.0088
558.95,0.009
559.306,0.0087
559.661,0.0081
560.017,0.0084
560.372,0.0081
560.728,0.0094
561.083,0.0083
561.438,0.0081
561.794,0.0083
562.149,0.0086
562.504,0.0081
562.859,0.0077
563.215,0.0084
563.57,0.009
563.925,0.0082
564.28,0.0075
564.635,0.0085
564.99,0.0077
565.344,0.0077
565.699,0.0083
566.054,0.0073
566.409,0.0081
566.763,0.0074
567.118,0.0076
567.473,0.0074
567.827,0.008
568.182,0.0079
568.536,0.0072
568.891,0.0075
569.245,0.0068
569.599,0.0067
569.953,0.0073
570.308,0.0073
570.662,0.0077
571.016,0.0081
571.37,0.0067
571.724,0.0068
572.078,0.0074
572.432,0.0071
572.786,0.0071
573.14,0.0059
573.494,0.0064
573.847,0.0067
574.201,0.0061
574.555,0.0059
574.908,0.0069
575.262,0.0063
575.615,0.0071
575.969,0.0071
576.322,0.0074
576.676,0.0078
577.029,0.0061
577.382,0.0063
577.736,0.0062
578.089,0.0068
578.442,0.0066
578.795,0.0069
579.148,0.0067
579.501,0.0068
579.854,0.0069
580.207,0.0069
580.56,0.0063
580.913,0.0064
581.265,0.0062
581.618,0.0054
581.971,0.0066
582.324,0.0071
582.676,0.0063
583.029,0.0074
583.381,0.0069
583.734,0.0068
584.086,0.0066
584.438,0.0087
584.791,0.0081
585.143,0.0063
585.495,0.0071
585.847,0.007
586.2,0.0069
586.552,0.0082
586.904,0.0072
587.256,0.0073
587.608,0.0071
587.959,0.0071
588.311,0.0072
588.663,0.0076
589.015,0.0079
589.367,0.007
589.718,0.0075
590.07,0.0073
590.421,0.0068
590.773,0.0071
591.124,0.0067
591.476,0.0077
591.827,0.0076
592.179,0.007
592.53,0.0084
592.881,0.0095
593.232,0.0072
593.584,0.0084
593.935,0.0073
594.286,0.0079
594.637,0.008
594.988,0.0074
595.339,0.0093
595.689,0.0088
596.04,0.0079
596.391,0.0095
596.742,0.0092
597.092,0.0094
597.443,0.009
597.794,0.0081
598.144,0.008
598.495,0.0092
598.845,0.0105
599.196,0.0102
599.546,0.01
599.896,0.0101
600.247,0.0096
600.597,0.011
600.947,0.0108
601.297,0.0114
601.647,0.0104
601.997,0.0104
602.347,0.0104
602.697,0.0112
603.047,0.0106
603.397,0.0125
603.747,0.0111
604.096,0.0133
604.446,0.0123
604.796,0.013
605.145,0.0128
605.495,0.0121
605.844,0.0136
606.194,0.0121
606.543,0.0132
606.893,0.0143
607.242,0.0151
607.591,0.0151
607.94,0.0151
608.29,0.0151
608.639,0.0161
608.988,0.0168
609.337,0.0162
609.686,0.0169
610.035,0.017
610.384,0.0201
610.733,0.02
611.081,0.0208
611.43,0.0205
611.779,0.0201
612.127,0.022
612.476,0.0223
612.825,0.0222
613.173,0.0228
613.522,0.0228
613.87,0.0227
614.218,0.0239
614.567,0.0254
614.915,0.0242
615.263,0.0255
615.611,0.026
615.96,0.0267
616.308,0.0279
616.656,0.029
617.004,0.0307
617.352,0.0294
617.7,0.0312
618.047,0.0326
618.395,0.0342
618.743,0.034
619.091,0.0353
619.438,0.0355
619.786,0.0364
620.134,0.0395
620.481,0.0408
620.829,0.0429
621.176,0.045
621.523,0.0438
621.871,0.0448
622.218,0.0487
622.565,0.0518
622.912,0.0534
623.259,0.0539
623.607,0.0528
623.954,0.0576
624.301,0.0582
624.648,0.0612
624.994,0.0619
625.341,0.0621
625.688,0.0667
626.035,0.0674
626.382,0.0691
626.728,0.0699
627.075,0.0741
627.421,0.0726
627.768,0.0752
628.114,0.0763
628.461,0.0795
628.807,0.0792
629.154,0.0774
629.5,0.0804
629.846,0.08
630.192,0.0776
630.538,0.0786
630.884,0.0759
631.231,0.0745
631.577,0.0717
631.922,0.0705
632.268,0.0686
632.614,0.064
632.96,0.0607
633.306,0.0584
633.651,0.0535
633.997,0.053
634.343,0.0476
634.688,0.0449
635.034,0.0415
635.379,0.0399
635.725,0.0382
636.07,0.035
636.415,0.0336
636.761,0.0312
637.106,0.0299
637.451,0.0273
637.796,0.0248
638.141,0.0247
638.486,0.0248
638.831,0.0229
639.176,0.0211
639.521,0.0201
639.866,0.0201
640.211,0.0196
640.555,0.0182
640.9,0.0177
641.245,0.0169
641.589,0.0162
641.934,0.0153
642.278,0.0161
642.623,0.0152
642.967,0.0147
643.312,0.0135
643.656,0.0147
644,0.0126
644.344,0.0119
644.689,0.0122
645.033,0.0119
645.377,0.0124
645.721,0.0113
646.065,0.0103
646.409,0.0103
646.753,0.0121
647.096,0.0098
647.44,0.01
647.784,0.0089
648.128,0.009
648.471,0.01
648.815,0.0095
649.158,0.0097
649.502,0.0087
649.845,0.0086
650.189,0.009
650.532,0.0095
650.875,0.0087
651.218,0.0078
651.562,0.0072
651.905,0.0084
652.248,0.008
652.591,0.008
652.934,0.0092
653.277,0.0082
653.62,0.0087
653.963,0.0085
654.305,0.0086
654.648,0.0088
654.991,0.0085
655.334,0.0082
655.676,0.0089
656.019,0.0081
656.361,0.0071
656.704,0.0084
657.046,0.0084
657.389,0.007
657.731,0.0079
658.073,0.0081
658.415,0.0075
658.757,0.007
659.1,0.0078
659.442,0.0069
659.784,0.0075
660.126,0.0086
660.468,0.0086
660.809,0.0077
661.151,0.0082
661.493,0.0077
661.835,0.0074
662.177,0.0064
662.518,0.0076
662.86,0.0068
663.201,0.0086
663.543,0.0087
663.884,0.0062
664.226,0.0071
664.567,0.0088
664.908,0.008
665.249,0.0069
665.591,0.0072
665.932,0.0087
666.273,0.0069
666.614,0.0085
666.955,0.0089
667.296,0.0094
667.637,0.0081
667.978,0.0082
668.318,0.0087
668.659,0.0057
669,0.0068
669.341,0.0069
669.681,0.007
670.022,0.0077
670.362,0.008
670.703,0.0076
671.043,0.0089
671.383,0.0082
671.724,0.007
672.064,0.0072
672.404,0.0081
672.744,0.0079
673.085,0.0095
673.425,0.0088
673.765,0.0085
674.105,0.0079
674.444,0.0059
674.784,0.0088
675.124,0.0061
675.464,0.0074
675.804,0.0066
676.143,0.0077
676.483,0.0085
676.823,0.0085
677.162,0.0086
677.501,0.0076
677.841,0.0091
678.18,0.0089
678.52,0.0078
678.859,0.0073
679.198,0.0082
679.537,0.0068
679.876,0.0077
680.215,0.0071
680.555,0.0091
680.894,0.0085
681.232,0.0086
681.571,0.0079
681.91,0.0079
682.249,0.009
682.588,0.008
682.926,0.0075
683.265,0.0079
683.604,0.0077
683.942,0.0084
684.281,0.0089
684.619,0.01
684.957,0.0089
685.296,0.0091
685.634,0.0081
685.972,0.0086
686.31,0.0081
686.649,0.0094
686.987,0.0095
687.325,0.0097
687.663,0.007
688.001,0.0079
688.338,0.0082
688.676,0.0083
689.014,0.0081
689.352,0.0094
689.69,0.009
690.027,0.0076
690.365,0.0091
690.702,0.0087
691.04,0.0087
691.377,0.0071
691.715,0.0089
692.052,0.0112
692.389,0.0087
692.726,0.0089
693.064,0.0093
693.401,0.0094
693.738,0.0088
694.075,0.0092
694.412,0.0097
694.749,0.0101
695.086,0.0085
695.423,0.0101
695.759,0.007
696.096,0.0078
696.433,0.0097
696.769,0.01
697.106,0.0105
697.443,0.0098
697.779,0.0095
698.116,0.0093
698.452,0.0096
698.788,0.0105
699.125,0.0084
699.461,0.0087
699.797,0.0086
700.133,0.0102
700.469,0.0106
700.805,0.009
701.141,0.0111
701.477,0.0094
701.813,0.0093
702.149,0.009
702.485,0.0098
702.82,0.0091
703.156,0.0094
703.492,0.0096
703.827,0.0095
704.163,0.0098
704.498,0.009
704.834,0.0096
705.169,0.0095
705.505,0.0103
705.84,0.0099
706.175,0.0118
706.51,0.0113
706.845,0.0084
707.18,0.0108
707.515,0.0117
707.85,0.0112
708.185,0.01
708.52,0.0108
708.855,0.0132
709.19,0.0101
709.525,0.0104
709.859,0.0104
710.194,0.0115
710.529,0.0107
710.863,0.0113
711.198,0.0101
711.532,0.0104
711.866,0.0098
712.201,0.0111
712.535,0.0097
712.869,0.0116
713.203,0.0118
713.537,0.0106
713.872,0.0094
714.206,0.0108
714.54,0.0116
714.873,0.0088
715.207,0.0109
715.541,0.0133
715.875,0.0109
716.209,0.0109
716.542,0.0113
716.876,0.0114
717.21,0.012
717.543,0.013
717.877,0.0092
718.21,0.0106
718.543,0.012
718.877,0.0132
719.21,0.0117
719.543,0.0097
719.876,0.0122
720.209,0.0116
720.542,0.0107
720.875,0.0117
721.208,0.0132
721.541,0.0129
721.874,0.013
722.207,0.0135
722.54,0.0127
722.872,0.0123
723.205,0.0125
723.538,0.0113
723.87,0.0102
724.203,0.0112
724.535,0.0093
724.868,0.011
725.2,0.0099
725.532,0.0094
725.865,0.0097
726.197,0.0141
726.529,0.0125
726.861,0.0107
727.193,0.0087
727.525,0.0106
727.857,0.0107
728.189,0.013
728.521,0.0143
728.853,0.0115
729.184,0.0138
729.516,0.0133
729.848,0.0109
730.179,0.0117
730.511,0.0134
730.842,0.0116
731.174,0.0096
731.505,0.0115
731.836,0.0131
732.168,0.0123
732.499,0.0123
732.83,0.0144
733.161,0.0127
733.492,0.0116
733.823,0.0137
734.154,0.0137
734.485,0.0124
734.816,0.0153
735.147,0.0153
735.478,0.0119
735.808,0.0126
736.139,0.0144
736.47,0.0141
736.8,0.0103
737.131,0.0108
737.461,0.0141
737.792,0.0153
738.122,0.0133
738.452,0.013
738.782,0.0161
739.113,0.0128
739.443,0.0162
739.773,0.0117
740.103,0.0132
740.433,0.0152
740.763,0.0134
741.093,0.0113
741.423,0.0162
741.752,0.0156
742.082,0.0138
742.412,0.0152
742.742,0.0131
743.071,0.0158
743.401,0.0148
743.73,0.0116
744.06,0.0135
744.389,0.0134
744.718,0.013
745.048,0.0156
745.377,0.0122
745.706,0.0139
746.035,0.0166
746.364,0.0131
746.693,0.0142
747.022,0.0127
747.351,0.0149
747.68,0.0131
748.009,0.0127
748.338,0.0131
748.666,0.0145
748.995,0.0147
749.323,0.0166
749.652,0.0136
749.981,0.0154
750.309,0.0123
750.637,0.0128
750.966,0.0166
751.294,0.0144
751.622,0.0149
751.95,0.0132
752.279,0.0131
752.607,0.0127
752.935,0.0164
753.263,0.0158
753.591,0.0153
753.919,0.0139
754.246,0.0165
754.574,0.0151
754.902,0.0128
755.23,0.0173
755.557,0.0162
755.885,0.0158
756.212,0.0151
756.54,0.0132
756.867,0.0155
757.195,0.0155
757.522,0.0143
757.849,0.0144
758.176,0.0118
758.503,0.0146
758.831,0.0136
759.158,0.0147
759.485,0.0169
759.812,0.0181
760.138,0.0133
760.465,0.0142
760.792,0.0152
761.119,0.0125
761.446,0.0157
761.772,0.018
762.099,0.0167
762.425,0.0139
762.752,0.0155
763.078,0.0127
763.405,0.0179
763.731,0.0188
764.057,0.0175
764.383,0.0143
764.71,0.0107
765.036,0.0164
765.362,0.0188
765.688,0.0172
766.014,0.0178
766.34,0.0174
766.665,0.0195
766.991,0.0181
767.317,0.0167
767.643,0.0169
767.968,0.0163
768.294,0.0151
768.619,0.0174
768.945,0.0164
769.27,0.0158
769.596,0.0169
769.921,0.0184
770.246,0.0151
770.572,0.0137
770.897,0.0168
771.222,0.0206
771.547,0.0182
771.872,0.0161
772.197,0.0173
772.522,0.0159
772.847,0.016
773.171,0.0164
773.496,0.0153
773.821,0.0172
774.146,0.0179
774.47,0.0168
774.795,0.0219
775.119,0.0178
775.444,0.0161
775.768,0.0213
776.092,0.0191
776.417,0.02
776.741,0.0161
777.065,0.014
777.389,0.0185
777.713,0.0183
778.037,0.0176
778.361,0.0181
778.685,0.0235
779.009,0.0208
779.333,0.0183
779.657,0.0207
779.98,0.0193
780.304,0.019
780.627,0.0179
780.951,0.0193
781.274,0.0205
781.598,0.0196
781.921,0.0192
782.245,0.0213
782.568,0.017
782.891,0.0193
783.214,0.0207
783.537,0.0213
783.861,0.0205
784.184,0.0247
784.506,0.023
784.829,0.0205
785.152,0.0168
785.475,0.0178
785.798,0.0169
786.12,0.0174
786.443,0.0201
786.766,0.0201
787.088,0.0193
787.411,0.0207
787.733,0.0202
788.056,0.0199
788.378,0.0215
788.7,0.0222
789.022,0.0194
789.345,0.0186
789.667,0.0182
789.989,0.0207
790.311,0.0173
790.633,0.0213
790.955,0.022
791.276,0.0251
791.598,0.0231
791.92,0.0195
792.242,0.0215
792.563,0.0205
792.885,0.0227
793.206,0.0205
793.528,0.0221
793.849,0.0168
794.171,0.0242
794.492,0.0195
794.813,0.0207
795.134,0.0218
795.456,0.0188
795.777,0.0162
796.098,0.0203
796.419,0.0206
796.74,0.0256
797.061,0.0194
797.381,0.0196
797.702,0.0185
798.023,0.0192
798.344,0.0201
798.664,0.0222
798.985,0.0169
799.305,0.0212
799.626,0.0219
799.946,0.0221
800.267,0.0237
800.587,0.0213
800.907,0.0244
801.227,0.0213
801.548,0.021
801.868,0.0258
802.188,0.0227
802.508,0.021
802.828,0.0201
803.147,0.0261
803.467,0.0221
803.787,0.0235
804.107,0.0224
804.426,0.0217
804.746,0.0218
805.066,0.0234
805.385,0.0206
805.705,0.0234
806.024,0.0212
806.343,0.0225
806.663,0.0245
806.982,0.0217
807.301,0.018
807.62,0.0199
807.939,0.0203
808.258,0.0273
808.577,0.0271
808.896,0.0234
809.215,0.0254
809.534,0.0238
809.852,0.0198
810.171,0.026
810.49,0.0198
810.808,0.0198
811.127,0.0281
811.445,0.0203
811.764,0.0219
812.082,0.0197
812.401,0.0243
812.719,0.0294
813.037,0.026
813.355,0.0237
813.673,0.0273
813.991,0.0241
814.309,0.0281
814.627,0.0267
814.945,0.0269
815.263,0.0277
815.581,0.0255
815.899,0.0266
816.216,0.0228
816.534,0.0275
816.851,0.0266
817.169,0.0265
817.486,0.0226
817.804,0.0237
818.121,0.0277
818.438,0.0255
818.756,0.0244
819.073,0.025
819.39,0.026
819.707,0.0299
820.024,0.0284
820.341,0.024
820.658,0.03
820.975,0.0278
821.292,0.0268
821.608,0.0274
821.925,0.0225
822.242,0.0324
822.558,0.0286
822.875,0.0282
823.191,0.0274
823.508,0.0243
823.824,0.029
824.141,0.0303
824.457,0.0254
824.773,0.0302
825.089,0.0278
825.405,0.0317
825.721,0.0336
826.037,0.0273
826.353,0.0353
826.669,0.0295
826.985,0.0292
827.301,0.0349
827.617,0.0299
827.932,0.0304
828.248,0.0299
828.563,0.0339
828.879,0.0341
829.194,0.0299
829.51,0.0303
829.825,0.0342
830.14,0.0401
830.456,0.029
830.771,0.0319
831.086,0.0272
831.401,0.0317
831.716,0.0318
832.031,0.033
832.346,0.0225
832.661,0.0339
832.976,0.0305
833.29,0.0341
833.605,0.0362
833.92,0.0318
834.234,0.0345
834.549,0.0303
834.863,0.04
835.178,0.0364
835.492,0.0319
835.806,0.037
836.121,0.0357
836.435,0.0346
836.749,0.0342
837.063,0.0346
837.377,0.0349
837.691,0.0389
838.005,0.0361
838.319,0.0374
838.633,0.0323
838.946,0.0287
839.26,0.0364
839.574,0.0424
839.887,0.0279
840.201,0.0369
840.514,0.0365
840.828,0.0345
841.141,0.0347
841.455,0.036
841.768,0.0416
842.081,0.0339
842.394,0.0338
842.707,0.0383
843.02,0.0338
843.333,0.0449
843.646,0.0382
843.959,0.0421
844.272,0.0381
844.585,0.0311
844.898,0.0391
845.21,0.0378
845.523,0.0404
845.835,0.0383
846.148,0.0354
846.46,0.0416
846.773,0.0319
847.085,0.0373
847.397,0.0367
847.71,0.045
848.022,0.0395
848.334,0.041
848.646,0.0391
848.958,0.0452
849.27,0.0338
849.582,0.03
849.894,0.0359
850.205,0.0408
850.517,0.0478
850.829,0.0347
851.141,0.0375
851.452,0.0406
851.764,0.0421
852.075,0.042
852.386,0.0311
852.698,0.0413
853.009,0.0365
853.32,0.0415
853.632,0.034
853.943,0.0355
854.254,0.0415
854.565,0.0447
854.876,0.0463
855.187,0.0425
855.497,0.045
855.808,0.0403
856.119,0.0379
856.43,0.0463
856.74,0.0468
857.051,0.051
857.361,0.0417
857.672,0.0384
857.982,0.049
858.293,0.0378
858.603,0.0423
858.913,0.0428
859.223,0.0518
859.533,0.049
859.844,0.0454
860.154,0.0417
860.464,0.0439
860.773,0.0408
861.083,0.0449
861.393,0.043
861.703,0.0474
862.013,0.0529
862.322,0.0472
862.632,0.045
862.941,0.0448
863.251,0.041
863.56,0.0437
863.869,0.0473
864.179,0.0481
864.488,0.0461
864.797,0.0507
865.106,0.0509
865.415,0.0495
865.724,0.041
866.033,0.0532
866.342,0.0518
866.651,0.0598
866.96,0.0493
867.269,0.0558
867.577,0.0494
867.886,0.0483
868.195,0.0472
868.503,0.0464
868.812,0.0587
869.12,0.0522
869.428,0.0572
869.737,0.0391
870.045,0.0468
870.353,0.0511
870.661,0.0459
870.969,0.0521
871.277,0.0562
871.585,0.0519
871.893,0.0458
872.201,0.046
872.509,0.0466
872.817,0.0578
873.124,0.0517
873.432,0.0574
873.739,0.0584
874.047,0.0543
874.354,0.0604
874.662,0.061
874.969,0.0498
875.276,0.0452
875.584,0.0529
875.891,0.0561
876.198,0.0499
876.505,0.0479
876.812,0.0489
877.119,0.0561
877.426,0.0587
877.733,0.054
878.04,0.0586
878.346,0.0555
878.653,0.0609
878.96,0.0584
879.266,0.0668
879.573,0.054
879.879,0.0631
880.185,0.0578
880.492,0.0602
880.798,0.0646
881.104,0.0663
881.411,0.0895
881.717,0.057
882.023,0.0637
882.329,0.0586
882.635,0.0569
882.941,0.0667
883.246,0.049
883.552,0.071
883.858,0.0561
884.164,0.0827
884.469,0.0641
884.775,0.0773
885.08,0.0603
885.386,0.0767
885.691,0.0591
885.996,0.0634
886.302,0.061
886.607,0.0626
886.912,0.0711
887.217,0.0749
887.522,0.0679
887.827,0.0741
888.132,0.0679
888.437,0.076
888.742,0.066
889.046,0.0616
889.351,0.0731
889.656,0.071
889.96,0.0766
890.265,0.0783
890.569,0.0733
890.874,0.0745
891.178,0.0521
891.483,0.0831
891.787,0.0606
892.091,0.0757
892.395,0.081
892.699,0.0686
893.003,0.0715
893.307,0.076
893.611,0.061
893.915,0.0796
894.219,0.0686
894.523,0.0614
894.826,0.0802
895.13,0.0779
895.433,0.0747
895.737,0.067
896.04,0.0706
896.344,0.0683
896.647,0.074
896.95,0.0766
897.254,0.0909
897.557,0.0585
897.86,0.0857
898.163,0.0763
898.466,0.0709
898.769,0.0721
899.072,0.0718
899.375,0.0725
899.677,0.0721
899.98,0.0784
900.283,0.0587
900.585,0.069
900.888,0.0733
901.191,0.0694
901.493,0.0758
901.795,0.0666
902.098,0.0959
902.4,0.0743
902.702,0.0745
903.004,0.0779
903.306,0.0618
903.608,0.081
903.91,0.0669
904.212,0.0799
904.514,0.0626
904.816,0.075
905.118,0.0976
905.42,0.0679
905.721,0.0735
906.023,0.078
906.324,0.0853
906.626,0.0818
906.927,0.0908
907.228,0.0643
907.53,0.0755
907.831,0.072
908.132,0.0967
908.433,0.0849
908.734,0.1009
909.035,0.0802
909.336,0.0818
909.637,0.0923
909.938,0.0877
910.239,0.0766
910.54,0.0903
910.84,0.0866
911.141,0.0829
911.441,0.0986
911.742,0.0885
912.042,0.0836
912.343,0.075
912.643,0.1074
912.943,0.0942
913.244,0.1085
913.544,0.0993
913.844,0.0938
914.144,0.0815
914.444,0.0777
914.744,0.0898
915.044,0.0991
915.343,0.1053
915.643,0.0721
915.943,0.0853
916.243,0.1076
916.542,0.096
916.842,0.0953
917.141,0.0992
917.441,0.0933
917.74,0.0932
918.039,0.1024
918.338,0.0997
918.638,0.0815
918.937,0.0949
919.236,0.0981
919.535,0.0919
919.834,0.102
920.133,0.1014
920.431,0.1153
920.73,0.1287
921.029,0.1049
921.328,0.1121
921.626,0.0749
921.925,0.116
922.223,0.1203
922.522,0.1139
922.82,0.0962
923.118,0.1052
923.417,0.1045
923.715,0.1258
924.013,0.1352
924.311,0.117
924.609,0.1301
924.907,0.1131
925.205,0.1148
925.503,0.114
925.801,0.1236
926.098,0.123
926.396,0.1312
926.694,0.111
926.991,0.0993
927.289,0.1329
927.586,0.1198
927.884,0.1258
928.181,0.1292
928.478,0.1207
928.775,0.1115
929.073,0.1183
929.37,0.1253
929.667,0.1141
929.964,0.108
930.261,0.1375
930.557,0.1387
930.854,0.11
931.151,0.132
931.448,0.1388
931.744,0.1418
932.041,0.1375
932.337,0.1104
932.634,0.1467
932.93,0.1546
933.227,0.1415
933.523,0.1358
933.819,0.1358
934.115,0.1576
934.412,0.1616
934.708,0.1477
935.004,0.1712
935.3,0.1214
935.595,0.1593
935.891,0.1792
936.187,0.145
936.483,0.1576
936.778,0.1578
937.074,0.1657
937.369,0.175
937.665,0.1362
937.96,0.1393
938.256,0.1945
938.551,0.1704
938.846,0.1943
939.141,0.1676
939.437,0.1975
939.732,0.1751
940.027,0.1834
940.322,0.1776
940.617,0.181
940.911,0.149
941.206,0.1695
941.501,0.1991
941.796,0.2213
942.09,0.1901
942.385,0.1965
942.679,0.173
942.974,0.1778
943.268,0.1602
943.562,0.1972
943.857,0.1939
944.151,0.2063
944.445,0.1607
944.739,0.175
945.033,0.2059
945.327,0.1997
945.621,0.2096
945.915,0.1514
946.208,0.2068
946.502,0.1793
946.796,0.2159
947.089,0.2329
947.383,0.2259
947.676,0.2132
947.97,0.2079
948.263,0.1729
948.557,0.1902
948.85,0.2078
949.143,0.1692
949.436,0.2422
949.729,0.1972
950.022,0.2596
950.315,0.242
950.608,0.2953
950.901,0.2483
951.194,0.2152
951.487,0.2266
951.779,0.2382
952.072,0.2982
952.364,0.2586
952.657,0.2232
952.949,0.2135
953.242,0.244
953.534,0.2565
953.826,0.2401
954.118,0.2888
954.411,0.2463
954.703,0.236
954.995,0.2543
955.287,0.2889
955.579,0.2769
955.87,0.2814
956.162,0.2582
956.454,0.2403
956.746,0.2443
957.037,0.2614
957.329,0.3011
957.62,0.3054
957.912,0.3141
958.203,0.2972
958.494,0.3432
958.786,0.3148
959.077,0.3154
959.368,0.2393
959.659,0.2962
959.95,0.3007
960.241,0.2786
960.532,0.2853
960.823,0.3225
961.114,0.3428
961.404,0.3499
961.695,0.3612
961.986,0.3264
962.276,0.3336
962.567,0.3451
962.857,0.3008
963.147,0.3217
963.438,0.3469
963.728,0.3609
964.018,0.3773
964.308,0.3683
964.598,0.358
964.888,0.34
965.178,0.3787
965.468,0.384
965.758,0.3563
966.048,0.2987
966.338,0.3796
966.627,0.3647
966.917,0.3405
967.206,0.3556
967.496,0.3584
967.785,0.3821
968.075,0.4061
968.364,0.3647
968.653,0.3686
968.942,0.4356
969.232,0.4439
969.521,0.4981
969.81,0.3773
970.099,0.4035
970.388,0.3684
970.676,0.3638
970.965,0.4787
971.254,0.3296
971.543,0.4388
971.831,0.4041
972.12,0.437
972.408,0.4096
972.697,0.4086
972.985,0.503
973.273,0.4767
973.561,0.4035
973.85,0.4341
974.138,0.3643
974.426,0.4459
974.714,0.4718
975.002,0.387
975.29,0.5185
975.577,0.4557
975.865,0.4813
976.153,0.3851
976.441,0.5158
976.728,0.5068
977.016,0.42
977.303,0.4555
977.59,0.5259
977.878,0.4905
978.165,0.5501
978.452,0.5385
978.74,0.4512
979.027,0.5175
979.314,0.5368
979.601,0.5266
979.888,0.465
980.174,0.4955
980.461,0.5279
980.748,0.5645
981.035,0.4759
981.321,0.5552
981.608,0.4922
981.894,0.615
982.181,0.6622
982.467,0.5969
982.754,0.6046
983.04,0.5863
983.326,0.6872
983.612,0.7051
983.898,0.5882
984.184,0.5858
984.47,0.6807
984.756,0.6862
985.042,0.7309
985.328,0.6054
985.614,0.6165
985.899,0.6505
986.185,0.6753
986.47,0.7011
986.756,0.5082
987.041,0.6707
987.327,0.6057
987.612,0.6952
987.897,0.6493
988.182,0.6262
988.468,0.8402
988.753,0.7039
989.038,0.7143
989.323,0.6832
989.607,0.7253
989.892,0.8266
990.177,0.6937
990.462,0.7984
990.746,0.7313
991.031,0.8589
991.315,0.6394
991.6,0.8246
991.884,0.8384
992.169,0.6859
992.453,0.5668
992.737,0.7632
993.021,0.7599
993.305,0.8864
993.59,0.9248
993.874,0.7109
994.157,0.8046
994.441,0.7808
994.725,0.7552
995.009,0.7024
995.293,0.8017
995.576,0.84
995.86,0.9433
996.143,0.9769
996.427,0.9892
996.71,1.064
996.993,0.9503
997.277,0.7669
997.56,0.8712
997.843,0.8488
998.126,1.2091
998.409,0.9222
998.692,0.8875
998.975,1.0183
999.258,1.0754
999.541,1.0556
999.823,1.1448
1000.106,1.0378
1000.388,1.3205
1000.671,0.8814
1000.954,1.1948
1001.236,0.9948
1001.518,1.0695
1001.801,1.2463
1002.083,1.1181
1002.365,1.2167
1002.647,1.219
1002.929,1.271
1003.211,1.4058
1003.493,1.3659
1003.775,0.989
1004.057,1.2269
1004.338,0.9866
1004.62,1.3812
1004.902,1.4307
1005.183,1.3598
1005.465,1.2194
1005.746,1.1083
1006.028,1.3326
1006.309,1.2993
1006.59,1.3474
1006.871,1.3983
1007.153,1.0705
1007.434,1.3419
1007.715,1.5108
1007.996,1.6636
1008.277,1.6106
1008.557,1.4239
1008.838,1.4488
1009.119,1.6153
1009.4,1.2948
1009.68,1.5499
1009.961,1.5009
1010.241,1.6501
1010.522,1.9077
1010.802,1.5717
1011.082,1.471
1011.362,1.7526
1011.643,1.6326
1011.923,1.8495
1012.203,1.4578
1012.483,1.567
1012.763,1.7207
1013.042,1.89
1013.322,1.7415
1013.602,1.5097
1013.882,1.7944
1014.161,1.8853
1014.441,1.7208
1014.72,1.6277
1015,1.6055
1015.279,1.8019
1015.558,1.7919
1015.838,1.5807
1016.117,1.8851
1016.396,2.221
1016.675,2.1432
1016.954,2.0456
1017.233,2.0688
1017.512,2.2313
1017.791,2.132
1018.07,2.0562
1018.348,2.2606
1018.627,1.692
1018.905,2.2994
1019.184,2.1818
1019.462,2.1185
1019.741,2.2826
1020.019,1.9713
1020.297,2.3429
1020.576,2.3911
1020.854,2.3022
1021.132,2.2428
1021.41,2.2417
1021.688,2.2406
