Wavelength, W/m2 
346.47,1.203985647
346.85,0.224103472
347.23,0.117624406
347.611,0.141012311
347.991,0.091008027
348.371,0.077276669
348.751,0.052273873
349.131,0.081431842
349.511,0.068244039
349.891,0.060122586
350.27,0.063562613
350.65,0.05966795
351.03,0.044485362
351.41,0.058380801
351.79,0.05321871
352.169,0.051648634
352.549,0.065936431
352.928,0.051390024
353.308,0.05594994
353.687,0.065331562
354.067,0.053437243
3.54E+02,0.056495636
3.55E+02,0.066931597
3.55E+02,0.058215465
3.56E+02,0.056273044
3.56E+02,0.064428773
3.56E+02,0.062982783
3.57E+02,0.059139593
3.57E+02,0.048333449
3.57E+02,0.052244013
3.58E+02,0.049272977
3.58E+02,0.049572112
3.59E+02,0.056085246
3.59E+02,0.052273844
3.59E+02,0.047395006
3.60E+02,0.051053497
3.60E+02,0.052715355
3.61E+02,0.052296884
3.61E+02,0.037495019
3.61E+02,0.051465587
3.62E+02,0.049997211
3.62E+02,0.053120757
3.62E+02,0.043816513
3.63E+02,0.047989293
3.63E+02,0.049536814
3.64E+02,0.043988376
3.64E+02,0.046436332
3.64E+02,0.048264932
3.65E+02,0.041847125
3.65E+02,0.046521473
3.65E+02,0.037129839
3.66E+02,0.039359952
3.66E+02,0.043828104
3.67E+02,0.043858366
3.67E+02,0.038369999
3.67E+02,0.042006656
3.68E+02,0.046869853
3.68E+02,0.041994027
3.68E+02,0.040706649
3.69E+02,0.038311362
3.69E+02,0.026348873
3.70E+02,0.035470477
3.70E+02,0.039569317
3.70E+02,0.038466074
3.71E+02,0.044797772
3.71E+02,0.042388073
3.71E+02,0.042192925
3.72E+02,0.041570177
3.72E+02,0.03723767
3.73E+02,0.038315437
3.73E+02,0.040972721
3.73E+02,0.036767984
3.74E+02,0.033524193
3.74E+02,0.029826711
3.74E+02,0.035505906
3.75E+02,0.036071335
3.75E+02,0.037409259
3.76E+02,0.037920743
3.76E+02,0.039116014
3.76E+02,0.028314616
3.77E+02,0.033813281
3.77E+02,0.02893517
3.78E+02,0.02925089
3.78E+02,0.038066925
3.78E+02,0.039154545
3.79E+02,0.036412559
3.79E+02,0.032411123
3.79E+02,0.035072561
3.80E+02,0.028704096
3.80E+02,0.04145779
3.81E+02,0.034164289
3.81E+02,0.031634334
3.81E+02,0.030048789
3.82E+02,0.033171902
3.82E+02,0.026161555
3.82E+02,0.029289313
3.83E+02,0.029806572
3.83E+02,0.028606991
3.84E+02,0.031748804
3.84E+02,0.028605894
3.84E+02,0.030405162
3.85E+02,0.031250135
3.85E+02,0.029951611
3.85E+02,0.029389902
3.86E+02,0.024197134
3.86E+02,0.029001039
3.87E+02,0.027018509
3.87E+02,0.028601963
3.87E+02,0.030993036
3.88E+02,0.02689699
3.88E+02,0.02941968
3.88E+02,0.030057068
3.89E+02,0.029642124
3.89E+02,0.030222987
3.90E+02,0.026082794
3.90E+02,0.033316824
3.90E+02,0.027272864
3.91E+02,0.023859372
3.91E+02,0.026359198
3.91E+02,0.027375517
3.92E+02,0.027453669
3.92E+02,0.024798191
3.93E+02,0.027315376
3.93E+02,0.028725756
3.93E+02,0.024462368
3.94E+02,0.023736651
3.94E+02,0.025680789
3.94E+02,0.022905026
3.95E+02,0.02594158
3.95E+02,0.025760321
3.96E+02,0.025079938
3.96E+02,0.021360812
3.96E+02,0.021345429
3.97E+02,0.025909442
3.97E+02,0.021349884
3.97E+02,0.021129905
3.98E+02,0.023234941
3.98E+02,0.024472863
3.99E+02,0.022155442
3.99E+02,0.020409216
3.99E+02,0.021549814
4.00E+02,0.021802797
4.00E+02,0.020081331
4.00E+02,0.020701344
4.01E+02,0.020725247
4.01E+02,0.021875898
4.02E+02,0.020413479
4.02E+02,0.023160994
4.02E+02,0.022874675
4.03E+02,0.021514699
4.03E+02,0.018310014
4.03E+02,0.022124582
4.04E+02,0.02791309
4.04E+02,0.029079647
4.05E+02,0.023578274
4.05E+02,0.020356258
4.05E+02,0.020338754
4.06E+02,0.018636051
4.06E+02,0.02572722
4.06E+02,0.019038162
4.07E+02,0.022241139
4.07E+02,0.022316308
4.08E+02,0.021389891
4.08E+02,0.020475229
4.08E+02,0.021379646
4.09E+02,0.020402832
4.09E+02,0.019723145
4.09E+02,0.024120367
4.10E+02,0.024093538
4.10E+02,0.022869612
4.11E+02,0.020283475
4.11E+02,0.020314323
4.11E+02,0.02083868
4.12E+02,0.021415424
4.12E+02,0.021153768
4.12E+02,0.021279036
4.13E+02,0.020923191
4.13E+02,0.023092451
4.14E+02,0.020241808
4.14E+02,0.038535692
4.14E+02,0.020293326
4.15E+02,0.022289802
4.15E+02,0.022312775
4.15E+02,0.022224067
4.16E+02,0.020794677
4.16E+02,0.021690115
4.17E+02,0.02089688
4.17E+02,0.023834469
4.17E+02,0.024917267
4.18E+02,0.024302822
4.18E+02,0.024552983
4.18E+02,0.027276311
4.19E+02,0.026045029
4.19E+02,0.024826082
4.19E+02,0.027099963
4.20E+02,0.026907473
4.20E+02,0.030089227
4.21E+02,0.026980025
4.21E+02,0.028378005
4.21E+02,0.029885026
4.22E+02,0.029081048
4.22E+02,0.032610843
4.22E+02,0.031601898
4.23E+02,0.033993489
4.23E+02,0.03495572
4.24E+02,0.035308706
4.24E+02,0.034055306
4.24E+02,0.034153148
4.25E+02,0.033967328
4.25E+02,0.039796268
4.25E+02,0.04079467
4.26E+02,0.044593256
4.26E+02,0.046965039
4.27E+02,0.048974437
4.27E+02,0.04852518
4.27E+02,0.048528861
4.28E+02,0.052275386
4.28E+02,0.056248005
4.28E+02,0.058847075
4.29E+02,0.058830095
4.29E+02,0.065980096
4.30E+02,0.070950748
4.30E+02,0.074502752
4.30E+02,0.072535403
4.31E+02,0.074839224
4.31E+02,0.079024435
4.31E+02,0.084533033
4.32E+02,0.087407754
4.32E+02,0.091171298
4.32E+02,0.104363419
4.33E+02,0.104027978
4.33E+02,0.110051984
4.34E+02,0.113732028
4.34E+02,0.127974091
4.34E+02,0.129930696
4.35E+02,0.150864377
4.35E+02,0.160831392
4.35E+02,0.170842109
4.36E+02,0.162527658
4.36E+02,0.166455058
4.37E+02,0.169770135
4.37E+02,0.182246362
4.37E+02,0.194968842
4.38E+02,0.200302779
4.38E+02,0.215167913
4.38E+02,0.222103145
4.39E+02,0.234807706
4.39E+02,0.242036044
4.40E+02,0.262439017
4.40E+02,0.269986826
4.40E+02,0.289930205
4.41E+02,0.300564333
4.41E+02,0.321127133
4.41E+02,0.337605229
4.42E+02,0.339885352
4.42E+02,0.364848509
4.42E+02,0.391867836
4.43E+02,0.398058456
4.43E+02,0.415218016
4.44E+02,0.442322241
4.44E+02,0.463967627
4.44E+02,0.482109188
4.45E+02,0.50267522
4.45E+02,0.536046967
4.45E+02,0.557672322
4.46E+02,0.580638675
4.46E+02,0.617323665
4.47E+02,0.634002739
4.47E+02,0.680071694
4.47E+02,0.69427312
4.48E+02,0.731331058
4.48E+02,0.752077912
4.48E+02,0.80258684
4.49E+02,0.844529825
4.49E+02,0.876146815
4.50E+02,0.920541877
4.50E+02,0.956363693
4.50E+02,0.979213763
4.51E+02,1.036695545
4.51E+02,1.072507805
4.51E+02,1.135982243
4.52E+02,1.179570536
4.52E+02,1.208453571
4.52E+02,1.247777578
4.53E+02,1.308735032
4.53E+02,1.327460724
4.54E+02,1.36741319
4.54E+02,1.425490541
4.54E+02,1.462586607
4.55E+02,1.476553714
4.55E+02,1.50958899
4.55E+02,1.528625266
4.56E+02,1.528600229
4.56E+02,1.569086287
4.57E+02,1.581275691
4.57E+02,1.579733584
4.57E+02,1.575445818
4.58E+02,1.5843568
4.58E+02,1.596266969
4.58E+02,1.607452867
4.59E+02,1.588475493
4.59E+02,1.596642717
4.59E+02,1.594307965
4.60E+02,1.576772394
4.60E+02,1.559583882
4.61E+02,1.575030577
4.61E+02,1.548936424
4.61E+02,1.524479148
4.62E+02,1.507745868
4.62E+02,1.49808412
4.62E+02,1.454691996
4.63E+02,1.438117527
4.63E+02,1.423226472
4.63E+02,1.390290991
4.64E+02,1.346432337
4.64E+02,1.332133717
4.65E+02,1.286951614
4.65E+02,1.237540185
4.65E+02,1.215120995
4.66E+02,1.144983052
4.66E+02,1.121320479
4.66E+02,1.087349718
4.67E+02,1.029798363
4.67E+02,0.999849537
4.68E+02,0.982616545
4.68E+02,0.930874493
4.68E+02,0.894515895
4.69E+02,0.878854985
4.69E+02,0.845097681
4.69E+02,0.808022496
4.70E+02,0.777900648
4.70E+02,0.7604017
4.70E+02,0.74167776
4.71E+02,0.720893052
4.71E+02,0.694961315
4.72E+02,0.678740148
4.72E+02,0.66254387
4.72E+02,0.645736713
4.73E+02,0.626968444
4.73E+02,0.611300085
4.73E+02,0.59637222
4.74E+02,0.573584236
4.74E+02,0.556259809
4.74E+02,0.538026151
4.75E+02,0.52779775
4.75E+02,0.499128279
4.76E+02,0.497071432
4.76E+02,0.483045617
4.76E+02,0.459921886
4.77E+02,0.453290919
4.77E+02,0.432617722
4.77E+02,0.416532025
4.78E+02,0.405994169
4.78E+02,0.394951357
4.79E+02,0.373535047
4.79E+02,0.366167294
4.79E+02,0.348608229
4.80E+02,0.333456847
4.80E+02,0.322358528
4.80E+02,0.30934558
4.81E+02,0.298393214
4.81E+02,0.287928473
4.81E+02,0.275617993
4.82E+02,0.266326861
4.82E+02,0.253693493
4.83E+02,0.245599792
4.83E+02,0.234139061
4.83E+02,0.221994649
4.84E+02,0.21512736
4.84E+02,0.205086604
4.84E+02,0.200947677
4.85E+02,0.193256201
4.85E+02,0.186841245
4.85E+02,0.178985964
4.86E+02,0.171519847
4.86E+02,0.162935606
4.87E+02,0.159724167
4.87E+02,0.152371743
4.87E+02,0.151173991
4.88E+02,0.145290982
4.88E+02,0.140887962
4.88E+02,0.133523754
4.89E+02,0.129910581
4.89E+02,0.124100738
4.89E+02,0.122348068
4.90E+02,0.120268564
4.90E+02,0.112514432
4.91E+02,0.111395911
4.91E+02,0.108844382
4.91E+02,0.102228571
4.92E+02,0.098970564
4.92E+02,0.097840668
4.92E+02,0.092873246
4.93E+02,0.090540086
4.93E+02,0.088003922
4.93E+02,0.085345802
4.94E+02,0.079927086
4.94E+02,0.077831233
4.95E+02,0.075582141
4.95E+02,0.073451379
4.95E+02,0.071130101
4.96E+02,0.070268645
4.96E+02,0.068173116
4.96E+02,0.064920109
4.97E+02,0.060498822
4.97E+02,0.060374257
4.97E+02,0.056600496
4.98E+02,0.056939007
4.98E+02,0.054771908
4.99E+02,0.050613252
4.99E+02,0.049459937
4.99E+02,0.048136089
5.00E+02,0.046915295
5.00E+02,0.044896403
5.00E+02,0.042150267
5.01E+02,0.042176816
5.01E+02,0.041624882
5.01E+02,0.038163534
5.02E+02,0.038596053
5.02E+02,0.037907467
5.03E+02,0.034541824
5.03E+02,0.03461208
5.03E+02,0.034269293
5.04E+02,0.033093496
5.04E+02,0.032510895
5.04E+02,0.030268141
5.05E+02,0.028543297
5.05E+02,0.028867447
5.05E+02,0.027186737
5.06E+02,0.027335256
5.06E+02,0.026461609
5.07E+02,0.027113465
5.07E+02,0.025451328
5.07E+02,0.026325471
5.08E+02,0.024422888
5.08E+02,0.024844231
5.08E+02,0.023492203
5.09E+02,0.022034756
5.09E+02,0.022026153
5.09E+02,0.022140918
5.10E+02,0.020732667
5.10E+02,0.019745808
5.11E+02,0.019644502
5.11E+02,0.020126139
5.11E+02,0.018756674
5.12E+02,0.017927739
5.12E+02,0.018467857
5.12E+02,0.018971099
5.13E+02,0.018280763
5.13E+02,0.018149233
5.13E+02,0.017110087
5.14E+02,0.016741673
5.14E+02,0.016622221
5.15E+02,0.016017599
5.15E+02,0.014740235
5.15E+02,0.015480491
5.16E+02,0.014173896
5.16E+02,0.016027083
5.16E+02,0.014959185
5.17E+02,0.014941197
5.17E+02,0.014404583
5.17E+02,0.015304826
5.18E+02,0.014487635
5.18E+02,0.013680833
5.18E+02,0.014275542
5.19E+02,0.013400249
5.19E+02,0.012944579
5.20E+02,0.013165232
5.20E+02,0.012397002
5.20E+02,0.012835952
5.21E+02,0.012267028
5.21E+02,0.013168481
5.21E+02,0.012547825
5.22E+02,0.01189133
5.22E+02,0.012957829
5.22E+02,0.012261149
5.23E+02,0.01257246
5.23E+02,0.012311277
5.24E+02,0.011012836
5.24E+02,0.010930372
5.24E+02,0.011446943
5.25E+02,0.012073226
5.25E+02,0.010813749
5.25E+02,0.011369594
5.26E+02,0.010313142
5.26E+02,0.011300793
5.26E+02,0.011323095
5.27E+02,0.010851439
5.27E+02,0.010241895
5.27E+02,0.010793183
5.28E+02,0.010883323
5.28E+02,0.009615875
5.29E+02,0.009303745
5.29E+02,0.010324651
5.29E+02,0.011271031
5.30E+02,0.01089726
5.30E+02,0.010195427
5.30E+02,0.010248101
5.31E+02,0.010208935
5.31E+02,0.009580842
5.31E+02,0.010037667
5.32E+02,0.00976818
5.32E+02,0.009598626
5.33E+02,0.009694495
5.33E+02,0.009264811
5.33E+02,0.008966744
5.34E+02,0.01014413
5.34E+02,0.010105632
5.34E+02,0.008928057
5.35E+02,0.009810984
5.35E+02,0.009680897
5.35E+02,0.008824449
5.36E+02,0.009771525
5.36E+02,0.009902737
5.36E+02,0.008920368
5.37E+02,0.008659598
5.37E+02,0.009147952
5.38E+02,0.010455237
5.38E+02,0.009347799
5.38E+02,0.009116176
5.39E+02,0.010623074
5.39E+02,0.010423078
5.39E+02,0.011467454
5.40E+02,0.012951214
5.40E+02,0.012949989
5.40E+02,0.015278829
5.41E+02,0.01753144
5.41E+02,0.017994004
5.41E+02,0.01841408
5.42E+02,0.016310672
5.42E+02,0.015766919
5.43E+02,0.016188904
5.43E+02,0.015573352
5.43E+02,0.014465013
5.44E+02,0.015256555
5.44E+02,0.014467763
5.44E+02,0.015253689
5.45E+02,0.018706738
5.45E+02,0.024965771
5.45E+02,0.026615847
5.46E+02,0.024851333
5.46E+02,0.01972095
5.46E+02,0.016119823
5.47E+02,0.015066315
5.47E+02,0.01378238
5.48E+02,0.012164896
5.48E+02,0.012492884
5.48E+02,0.011940196
5.49E+02,0.01023495
5.49E+02,0.011344721
5.49E+02,0.011146527
5.50E+02,0.010655888
5.50E+02,0.010223357
5.50E+02,0.009169843
5.51E+02,0.008285422
5.51E+02,0.008382028
5.51E+02,0.009133206
5.52E+02,0.009488171
5.52E+02,0.009026497
5.53E+02,0.008599426
5.53E+02,0.009155149
5.53E+02,0.008177701
5.54E+02,0.008337703
5.54E+02,0.008374131
5.54E+02,0.007459329
5.55E+02,0.007650945
5.55E+02,0.009054896
5.55E+02,0.00745102
5.56E+02,0.008037432
5.56E+02,0.00771188
5.56E+02,0.007024128
5.57E+02,0.007544446
5.57E+02,0.006922231
5.58E+02,0.006689767
5.58E+02,0.006587747
5.58E+02,0.006650565
5.59E+02,0.006779449
5.59E+02,0.00716741
5.59E+02,0.007003653
5.60E+02,0.008432646
5.60E+02,0.006769583
5.60E+02,0.00754792
5.61E+02,0.00709212
5.61E+02,0.007613461
5.61E+02,0.007160792
5.62E+02,0.008070559
5.62E+02,0.006317127
5.63E+02,0.007843892
5.63E+02,0.007061928
5.63E+02,0.008455869
5.64E+02,0.007157815
5.64E+02,0.00705956
5.64E+02,0.006862855
5.65E+02,0.008352006
5.65E+02,0.007145987
5.65E+02,0.006817538
5.66E+02,0.007562424
5.66E+02,0.007137049
5.66E+02,0.00651861
5.67E+02,0.007715398
5.67E+02,0.007359259
5.67E+02,0.007742575
5.68E+02,0.006605241
5.68E+02,0.007345294
5.69E+02,0.006501526
5.69E+02,0.007956068
5.69E+02,0.006469395
5.70E+02,0.007047631
5.70E+02,0.007108054
5.70E+02,0.007906901
5.71E+02,0.007131955
5.71E+02,0.007935298
5.71E+02,0.007000499
5.72E+02,0.007099511
5.72E+02,0.005649676
5.72E+02,0.00687149
5.73E+02,0.006353984
5.73E+02,0.0073873
5.73E+02,0.007227549
5.74E+02,0.006715655
5.74E+02,0.006689764
5.75E+02,0.007854565
5.75E+02,0.008246711
5.75E+02,0.007439732
5.76E+02,0.008612164
5.76E+02,0.008934052
5.76E+02,0.008880791
5.77E+02,0.007852717
5.77E+02,0.008279293
5.77E+02,0.006726633
5.78E+02,0.007346746
5.78E+02,0.008491657
5.78E+02,0.008820313
5.79E+02,0.007492397
5.79E+02,0.008479188
5.80E+02,0.008122577
5.80E+02,0.008790961
5.80E+02,0.009288929
5.81E+02,0.007370167
5.81E+02,0.008717474
5.81E+02,0.008043792
5.82E+02,0.008320639
5.82E+02,0.008753022
5.82E+02,0.008935828
5.83E+02,0.008554506
5.83E+02,0.009296006
5.83E+02,0.008517584
5.84E+02,0.009388801
5.84E+02,0.009177251
5.84E+02,0.009186899
5.85E+02,0.008240835
5.85E+02,0.008318041
5.85E+02,0.008300062
5.86E+02,0.007846665
5.86E+02,0.009674244
5.87E+02,0.009292875
5.87E+02,0.009208896
5.87E+02,0.008318341
5.88E+02,0.00877773
5.88E+02,0.007878832
5.88E+02,0.00789878
5.89E+02,0.009379445
5.89E+02,0.008923118
5.89E+02,0.008360978
5.90E+02,0.007969199
5.90E+02,0.008327885
5.90E+02,0.008071608
5.91E+02,0.00909104
5.91E+02,0.008932201
5.91E+02,0.008464508
5.92E+02,0.007822817
5.92E+02,0.008816099
5.93E+02,0.008240953
5.93E+02,0.009129939
5.93E+02,0.008412041
5.94E+02,0.008047362
5.94E+02,0.007781933
5.94E+02,0.007900914
5.95E+02,0.008021906
5.95E+02,0.007298009
5.95E+02,0.007493057
5.96E+02,0.007719236
5.96E+02,0.008619471
5.96E+02,0.007706488
5.97E+02,0.007043431
5.97E+02,0.00759528
5.97E+02,0.008281659
5.98E+02,0.008006213
5.98E+02,0.008846655
5.98E+02,0.00803201
5.99E+02,0.008654671
5.99E+02,0.007872291
6.00E+02,0.00730171
6.00E+02,0.007781625
6.00E+02,0.007827732
6.01E+02,0.008269073
6.01E+02,0.006717403
6.01E+02,0.00745596
6.02E+02,0.007141514
6.02E+02,0.009329259
6.02E+02,0.006930909
6.03E+02,0.009011504
6.03E+02,0.0084373
6.03E+02,0.007827936
6.04E+02,0.007904812
6.04E+02,0.008611155
6.04E+02,0.007921169
6.05E+02,0.006971458
6.05E+02,0.008327258
6.05E+02,0.008143368
6.06E+02,0.007562079
6.06E+02,0.007204058
6.07E+02,0.008641431
6.07E+02,0.007207892
6.07E+02,0.008273891
6.08E+02,0.008204941
6.08E+02,0.008752897
6.08E+02,0.008170444
6.09E+02,0.009351774
6.09E+02,0.009320192
6.09E+02,0.011944187
6.10E+02,0.01493064
6.10E+02,0.020305045
6.10E+02,0.02354008
6.11E+02,0.023853878
6.11E+02,0.023152353
6.11E+02,0.018839425
6.12E+02,0.01784562
6.12E+02,0.016458276
6.12E+02,0.014689023
6.13E+02,0.013440656
6.13E+02,0.013663099
6.14E+02,0.011976726
6.14E+02,0.011356009
6.14E+02,0.011292725
6.15E+02,0.010889042
6.15E+02,0.008938083
6.15E+02,0.009940171
6.16E+02,0.008991152
6.16E+02,0.008138057
6.16E+02,0.00792159
6.17E+02,0.007999213
6.17E+02,0.008711141
6.17E+02,0.008307974
6.18E+02,0.008425778
6.18E+02,0.007870552
6.18E+02,0.007840611
6.19E+02,0.0074395
6.19E+02,0.008083872
6.19E+02,0.007454937
6.20E+02,0.007572447
6.20E+02,0.008436379
6.20E+02,0.008859443
6.21E+02,0.007369956
6.21E+02,0.007452822
6.22E+02,0.009151647
6.22E+02,0.009164509
6.22E+02,0.007773833
6.23E+02,0.008534085
6.23E+02,0.007598635
6.23E+02,0.008924501
6.24E+02,0.00810631
6.24E+02,0.007929987
6.24E+02,0.008391549
6.25E+02,0.010068733
6.25E+02,0.007989686
6.25E+02,0.008269537
6.26E+02,0.009039691
6.26E+02,0.008450375
6.26E+02,0.008463395
6.27E+02,0.00886025
6.27E+02,0.008648753
6.27E+02,0.00836011
6.28E+02,0.008986846
6.28E+02,0.007692801
6.28E+02,0.00890864
6.29E+02,0.00788054
6.29E+02,0.008209769
6.30E+02,0.00962507
6.30E+02,0.009369914
6.30E+02,0.00942486
6.31E+02,0.01026698
6.31E+02,0.008559449
6.31E+02,0.008969968
6.32E+02,0.008677207
6.32E+02,0.007316148
6.32E+02,0.008201717
6.33E+02,0.007420816
6.33E+02,0.007630621
6.33E+02,0.006696461
6.34E+02,0.008267653
6.34E+02,0.008487723
6.34E+02,0.007625121
6.35E+02,0.007882427
6.35E+02,0.008698991
6.35E+02,0.00751538
6.36E+02,0.007048269
6.36E+02,0.007591441
6.36E+02,0.007251513
6.37E+02,0.007511981
6.37E+02,0.007899188
6.37E+02,0.007349309
6.38E+02,0.006998574
6.38E+02,0.00714106
6.38E+02,0.007865297
6.39E+02,0.0070184
6.39E+02,0.007076584
6.40E+02,0.00747054
6.40E+02,0.008488927
6.40E+02,0.007668187
6.41E+02,0.007267482
6.41E+02,0.007203373
6.41E+02,0.006923794
6.42E+02,0.007111844
6.42E+02,0.008403202
6.42E+02,0.00710474
6.43E+02,0.007677093
6.43E+02,0.006331285
6.43E+02,0.007456308
6.44E+02,0.007008939
6.44E+02,0.008794425
6.44E+02,0.007004372
6.45E+02,0.007717801
6.45E+02,0.007174253
6.45E+02,0.007407377
6.46E+02,0.008731441
6.46E+02,0.007928764
6.46E+02,0.008034733
6.47E+02,0.008577191
6.47E+02,0.008337706
6.47E+02,0.008050037
6.48E+02,0.007494067
6.48E+02,0.008618536
6.48E+02,0.008192073
6.49E+02,0.007096076
6.49E+02,0.008097623
6.50E+02,0.008293209
6.50E+02,0.008221328
6.50E+02,0.00864909
6.51E+02,0.009301118
6.51E+02,0.008193401
6.51E+02,0.006671077
6.52E+02,0.007822748
6.52E+02,0.008939233
6.52E+02,0.008271938
6.53E+02,0.007930365
6.53E+02,0.009178933
6.53E+02,0.007824654
6.54E+02,0.008490084
6.54E+02,0.007262353
6.54E+02,0.008850306
6.55E+02,0.00891678
6.55E+02,0.008056391
6.55E+02,0.007375965
6.56E+02,0.009677332
6.56E+02,0.00891115
6.56E+02,0.007239163
6.57E+02,0.007493617
6.57E+02,0.007983601
6.57E+02,0.00700705
6.58E+02,0.008390868
6.58E+02,0.008694301
6.58E+02,0.00733099
6.59E+02,0.009862043
6.59E+02,0.008494894
6.59E+02,0.008464394
6.60E+02,0.007186446
6.60E+02,0.008682397
6.60E+02,0.00941693
6.61E+02,0.007077604
6.61E+02,0.009882016
6.61E+02,0.008938041
6.62E+02,0.007797286
6.62E+02,0.008541301
6.63E+02,0.007003433
6.63E+02,0.008040177
6.63E+02,0.006007987
6.64E+02,0.007777713
6.64E+02,0.007252025
6.64E+02,0.006871725
6.65E+02,0.007815372
6.65E+02,0.008761216
6.65E+02,0.009960117
6.66E+02,0.007799261
6.66E+02,0.007817119
6.66E+02,0.008432002
6.67E+02,0.00759794
6.67E+02,0.006915924
6.67E+02,0.007027752
6.68E+02,0.008336692
6.68E+02,0.007652729
6.68E+02,0.007464653
6.69E+02,0.008030832
6.69E+02,0.009097195
6.69E+02,0.00877102
6.70E+02,0.007321525
6.70E+02,0.009948767
6.70E+02,0.008910691
6.71E+02,0.008067576
6.71E+02,0.008888103
6.71E+02,0.008801539
6.72E+02,0.007697879
6.72E+02,0.009191769
6.72E+02,0.00788279
6.73E+02,0.00789459
6.73E+02,0.00723978
6.73E+02,0.008435295
6.74E+02,0.007218752
6.74E+02,0.008620368
6.74E+02,0.008529783
6.75E+02,0.009477617
6.75E+02,0.009648948
6.75E+02,0.009455268
6.76E+02,0.007705209
6.76E+02,0.009121412
6.76E+02,0.009188464
6.77E+02,0.009572077
6.77E+02,0.00822208
6.78E+02,0.009439851
6.78E+02,0.007884919
6.78E+02,0.008316586
6.79E+02,0.008751636
6.79E+02,0.0074513
6.79E+02,0.008049099
6.80E+02,0.009491854
6.80E+02,0.008453425
6.80E+02,0.008788927
6.81E+02,0.008377454
6.81E+02,0.008661894
6.81E+02,0.008894258
6.82E+02,0.009349934
6.82E+02,0.009962518
6.82E+02,0.008156246
6.83E+02,0.009146844
6.83E+02,0.007330976
6.83E+02,0.008001149
6.84E+02,0.008780725
6.84E+02,0.009510876
6.84E+02,0.010460976
6.85E+02,0.009120409
6.85E+02,0.009693201
6.85E+02,0.008664546
6.86E+02,0.00968282
6.86E+02,0.010754985
6.86E+02,0.009282788
6.87E+02,0.010352867
6.87E+02,0.009651358
6.87E+02,0.009945955
6.88E+02,0.008348439
6.88E+02,0.009096918
6.88E+02,0.007940961
6.89E+02,0.009428458
6.89E+02,0.01013169
6.89E+02,0.010837511
6.90E+02,0.008482667
6.90E+02,0.009760767
6.90E+02,0.008364686
6.91E+02,0.009422663
6.91E+02,0.009451091
6.91E+02,0.009306549
6.92E+02,0.008588066
6.92E+02,0.009246777
6.92E+02,0.00944433
6.93E+02,0.011103794
6.93E+02,0.009435236
6.93E+02,0.011636799
6.94E+02,0.008609026
6.94E+02,0.008574221
6.94E+02,0.010377772
6.95E+02,0.007913585
6.95E+02,0.009960941
6.95E+02,0.010464916
6.96E+02,0.009301772
6.96E+02,0.008314226
6.96E+02,0.009967746
6.97E+02,0.009338066
6.97E+02,0.009127199
6.97E+02,0.009279375
6.98E+02,0.010597878
6.98E+02,0.009651112
6.98E+02,0.009809652
6.99E+02,0.008609575
6.99E+02,0.009944007
6.99E+02,0.009912387
7.00E+02,0.009443444
7.00E+02,0.010918222
7.00E+02,0.009442599
7.01E+02,0.010348325
7.01E+02,0.009882004
7.01E+02,0.009905723
7.02E+02,0.011268894
7.02E+02,0.010669721
7.02E+02,0.011914793
7.03E+02,0.012079631
7.03E+02,0.010447447
7.03E+02,0.011445804
7.04E+02,0.010505456
7.04E+02,0.010994709
7.04E+02,0.010970789
7.05E+02,0.010540125
7.05E+02,0.011230048
7.06E+02,0.012585686
7.06E+02,0.010255647
7.06E+02,0.011551077
7.07E+02,0.012590935
7.07E+02,0.010965623
7.07E+02,0.01153547
7.08E+02,0.010908147
7.08E+02,0.013028096
7.08E+02,0.012385608
7.09E+02,0.012090752
7.09E+02,0.011580849
7.09E+02,0.009910078
7.10E+02,0.010890438
7.10E+02,0.012779349
7.10E+02,0.011646123
7.11E+02,0.010580937
7.11E+02,0.010195037
7.11E+02,0.012658284
7.12E+02,0.011100679
7.12E+02,0.012959726
7.12E+02,0.012023134
7.13E+02,0.012558118
7.13E+02,0.011535685
7.13E+02,0.012070707
7.14E+02,0.00947318
7.14E+02,0.011565596
7.14E+02,0.011378814
7.15E+02,0.009627554
7.15E+02,0.01202107
7.15E+02,0.010184826
7.16E+02,0.010648875
7.16E+02,0.010464143
7.16E+02,0.012161078
7.17E+02,0.01241961
7.17E+02,0.011502681
7.17E+02,0.012925967
7.18E+02,0.012378923
7.18E+02,0.010798036
7.18E+02,0.010164062
7.19E+02,0.012408639
7.19E+02,0.012664847
7.19E+02,0.010609446
7.20E+02,0.012653286
7.20E+02,0.012082848
7.20E+02,0.011582064
7.21E+02,0.01334609
7.21E+02,0.010511362
7.21E+02,0.013106407
7.22E+02,0.011019103
7.22E+02,0.011497124
7.22E+02,0.010777994
7.23E+02,0.012721804
7.23E+02,0.01145038
7.23E+02,0.01101697
7.24E+02,0.011285175
7.24E+02,0.010629242
7.24E+02,0.012518517
7.25E+02,0.012710895
7.25E+02,0.012037649
7.25E+02,0.013709884
7.26E+02,0.01422554
7.26E+02,0.010646219
7.26E+02,0.015149239
7.27E+02,0.012275559
7.27E+02,0.010963137
7.27E+02,0.012977317
7.28E+02,0.012769461
7.28E+02,0.014072104
7.28E+02,0.013308252
7.29E+02,0.01502811
7.29E+02,0.014504862
7.29E+02,0.013247572
7.30E+02,0.014883804
7.30E+02,0.013231194
7.30E+02,0.013497242
7.31E+02,0.01353258
7.31E+02,0.012422287
7.31E+02,0.011474648
7.32E+02,0.011667275
7.32E+02,0.010948037
7.32E+02,0.011794045
7.32E+02,0.014373569
7.33E+02,0.013089942
7.33E+02,0.01138761
7.33E+02,0.01357641
7.34E+02,0.013855118
7.34E+02,0.012466878
7.34E+02,0.012328623
7.35E+02,0.014027701
735.147,0.008935724
7.35E+02,0.012247166
7.36E+02,0.011100503
7.36E+02,0.015279464
7.36E+02,0.011745007
7.37E+02,0.012199873
7.37E+02,0.012902036
7.37E+02,0.012512258
7.38E+02,0.014250909
7.38E+02,0.012308042
7.38E+02,0.012591288
7.39E+02,0.013830645
7.39E+02,0.012220512
7.39E+02,0.0134599
7.40E+02,0.014269865
7.40E+02,0.012125508
7.40E+02,0.012409614
7.41E+02,0.014797695
7.41E+02,0.013335352
7.41E+02,0.01441597
7.42E+02,0.014791443
7.42E+02,0.01350905
7.42E+02,0.013718857
7.43E+02,0.012949089
7.43E+02,0.016712323
7.43E+02,0.012303882
7.44E+02,0.013493338
7.44E+02,0.016472819
7.44E+02,0.015709554
7.45E+02,0.014408332
7.45E+02,0.013099521
7.45E+02,0.01304902
7.46E+02,0.015620505
7.46E+02,0.016565689
7.46E+02,0.012969366
7.47E+02,0.017284468
7.47E+02,0.015768936
7.47E+02,0.015619311
7.48E+02,0.014832412
7.48E+02,0.013024169
7.48E+02,0.01656104
7.49E+02,0.013171116
7.49E+02,0.015697283
7.49E+02,0.017215858
7.50E+02,0.015946436
7.50E+02,0.009553724
7.50E+02,0.013977043
7.51E+02,0.014010012
7.51E+02,0.015546543
7.51E+02,0.015496824
7.52E+02,0.016389696
7.52E+02,0.013582952
7.52E+02,0.014569887
7.53E+02,0.017096646
7.53E+02,0.016851683
7.53E+02,0.017197454
7.54E+02,0.014068699
7.54E+02,0.014395723
7.54E+02,0.0122192
7.55E+02,0.009738263
7.55E+02,0.014831004
7.55E+02,0.01574676
7.56E+02,0.013047986
7.56E+02,0.014857508
7.56E+02,0.016169646
7.57E+02,0.012861345
7.57E+02,0.015953857
7.57E+02,0.015002578
7.58E+02,0.01474536
7.58E+02,0.014976776
7.58E+02,0.016715885
7.59E+02,0.014557749
7.59E+02,0.014901461
7.59E+02,0.017172253
7.59E+02,0.012666505
7.60E+02,0.014425103
7.60E+02,0.014971734
7.60E+02,0.01409692
7.61E+02,0.018525642
7.61E+02,0.015711614
7.61E+02,0.017820259
7.62E+02,0.013439737
7.62E+02,0.017509376
7.62E+02,0.015277483
7.63E+02,0.017194818
7.63E+02,0.013285965
7.63E+02,0.018144166
7.64E+02,0.015470922
7.64E+02,0.013729323
7.64E+02,0.018110556
7.65E+02,0.014665821
7.65E+02,0.016510661
7.65E+02,0.013680159
7.66E+02,0.018101875
7.66E+02,0.017839657
7.66E+02,0.015196062
7.67E+02,0.016865625
7.67E+02,0.013677968
7.67E+02,0.015788395
7.68E+02,0.015189011
7.68E+02,0.017431718
7.68E+02,0.017386436
7.69E+02,0.018448193
7.69E+02,0.014533211
7.69E+02,0.017817545
7.70E+02,0.014532039
7.70E+02,0.018287239
7.70E+02,0.016894411
7.71E+02,0.016503862
7.71E+02,0.01927425
7.71E+02,0.017410464
7.72E+02,0.017596349
7.72E+02,0.017540265
7.72E+02,0.019895518
7.73E+02,0.015138905
7.73E+02,0.014728146
7.73E+02,0.015947447
7.73E+02,0.02066176
7.74E+02,0.016538773
7.74E+02,0.019317303
7.74E+02,0.020809677
7.75E+02,0.016993199
7.75E+02,0.019675851
7.75E+02,0.019997815
7.76E+02,0.019248237
7.76E+02,0.016914499
7.76E+02,0.018190506
7.77E+02,0.021062319
7.77E+02,0.020055849
7.77E+02,0.018425418
7.78E+02,0.021202324
7.78E+02,0.018949992
7.78E+02,0.018776979
7.79E+02,0.01896767
7.79E+02,0.019426996
7.79E+02,0.020117837
7.80E+02,0.019317108
7.80E+02,0.01952933
7.80E+02,0.018344734
7.81E+02,0.019695804
7.81E+02,0.02335294
7.81E+02,0.018172091
7.82E+02,0.018233827
7.82E+02,0.018427548
7.82E+02,0.022531303
7.83E+02,0.020264058
7.83E+02,0.018240073
7.83E+02,0.021717087
7.84E+02,0.019139297
7.84E+02,0.020763797
7.84E+02,0.024911012
7.85E+02,0.018593849
7.85E+02,0.015573975
7.85E+02,0.021970106
7.85E+02,0.020944877
7.86E+02,0.018163078
7.86E+02,0.021656665
7.86E+02,0.022345033
7.87E+02,0.019958039
7.87E+02,0.024256335
7.87E+02,0.019315838
7.88E+02,0.021340512
7.88E+02,0.022561043
7.88E+02,0.020026461
7.89E+02,0.021383663
7.89E+02,0.021530024
7.89E+02,0.022112231
7.90E+02,0.018615049
7.90E+02,0.021736859
7.90E+02,0.020003167
7.91E+02,0.02192245
7.91E+02,0.021413117
7.91E+02,0.02128746
7.92E+02,0.025110352
7.92E+02,0.022842099
7.92E+02,0.02028694
7.93E+02,0.021937835
7.93E+02,0.024139018
7.93E+02,0.021185521
7.94E+02,0.021628377
7.94E+02,0.023164947
7.94E+02,0.02126591
7.94E+02,0.016905789
7.95E+02,0.021199655
7.95E+02,0.023249242
7.95E+02,0.019989332
7.96E+02,0.020999061
7.96E+02,0.017732063
7.96E+02,0.016236163
7.97E+02,0.028455557
7.97E+02,0.018520197
7.97E+02,0.020641092
7.98E+02,0.023487174
7.98E+02,0.020601093
7.98E+02,0.023738975
7.99E+02,0.021870364
7.99E+02,0.018948614
7.99E+02,0.023238697
8.00E+02,0.01875455
8.00E+02,0.021784925
8.00E+02,0.024259473
8.01E+02,0.026164929
8.01E+02,0.02238609
8.01E+02,0.023007088
8.02E+02,0.018049046
8.02E+02,0.027625012
8.02E+02,0.019463073
8.03E+02,0.018964045
8.03E+02,0.020765038
8.03E+02,0.01776553
8.03E+02,0.025304232
8.04E+02,0.02494469
8.04E+02,0.021485477
8.04E+02,0.026883073
8.05E+02,0.019844577
8.05E+02,0.021839316
8.05E+02,0.024747831
8.06E+02,0.022129798
8.06E+02,0.020676102
8.06E+02,0.021357756
8.07E+02,0.027186315
8.07E+02,0.023652238
8.07E+02,0.022979217
8.08E+02,0.028116605
8.08E+02,0.024844687
8.08E+02,0.02631243
8.09E+02,0.023941675
8.09E+02,0.022922367
8.09E+02,0.022842688
8.10E+02,0.028759289
8.10E+02,0.024145564
8.10E+02,0.025823836
8.10E+02,0.027675041
8.11E+02,0.023464439
8.11E+02,0.023712909
8.11E+02,0.022045487
8.12E+02,0.026490734
8.12E+02,0.023210522
8.12E+02,0.024138217
8.13E+02,0.027189599
8.13E+02,0.020910987
8.13E+02,0.024490278
8.14E+02,0.024605545
8.14E+02,0.023053592
8.14E+02,0.022656888
8.15E+02,0.025621775
8.15E+02,0.027409487
8.15E+02,0.026518663
8.16E+02,0.026101847
8.16E+02,0.024340074
8.16E+02,0.026856279
8.17E+02,0.025060465
8.17E+02,0.028781302
8.17E+02,0.027340461
8.17E+02,0.027438252
8.18E+02,0.024217222
8.18E+02,0.028719057
8.18E+02,0.023914303
8.19E+02,0.02896793
8.19E+02,0.029090917
8.19E+02,0.031703494
8.20E+02,0.030560738
8.20E+02,0.021669202
8.20E+02,0.027521448
8.21E+02,0.031625534
8.21E+02,0.02794122
8.21E+02,0.030642432
8.22E+02,0.030250477
8.22E+02,0.031847881
8.22E+02,0.030328278
8.23E+02,0.024871795
8.23E+02,0.021802674
8.23E+02,0.029440593
8.24E+02,0.028075963
8.24E+02,0.034300354
8.24E+02,0.03081949
8.24E+02,0.030762936
8.25E+02,0.030884594
8.25E+02,0.032153285
8.25E+02,0.022969909
8.26E+02,0.025212454
8.26E+02,0.03526506
8.26E+02,0.037379827
8.27E+02,0.031009062
8.27E+02,0.028366678
8.27E+02,0.033667579
8.28E+02,0.029630764
8.28E+02,0.034769525
8.28E+02,0.026460226
8.29E+02,0.034455161
8.29E+02,0.026300747
8.29E+02,0.034387833
8.30E+02,0.029845846
8.30E+02,0.034717638
8.30E+02,0.033008374
8.30E+02,0.034379653
8.31E+02,0.03098081
8.31E+02,0.031302833
8.31E+02,0.032046313
8.32E+02,0.031342876
8.32E+02,0.030412164
8.32E+02,0.033689303
8.33E+02,0.035305216
8.33E+02,0.03219612
8.33E+02,0.034460359
8.34E+02,0.032022546
8.34E+02,0.033685209
8.34E+02,0.032925207
8.35E+02,0.031730433
8.35E+02,0.034719289
8.35E+02,0.028688442
8.35E+02,0.035869288
8.36E+02,0.034697527
8.36E+02,0.035469673
8.36E+02,0.040085483
8.37E+02,0.037098531
8.37E+02,0.034073934
8.37E+02,0.030809616
8.38E+02,0.033634062
8.38E+02,0.032406847
8.38E+02,0.035033208
8.39E+02,0.028532009
8.39E+02,0.04198317
8.39E+02,0.039374598
8.40E+02,0.043018724
8.40E+02,0.032945502
8.40E+02,0.03236441
8.41E+02,0.033194186
8.41E+02,0.03047321
8.41E+02,0.032018476
8.41E+02,0.034518808
8.42E+02,0.041330087
8.42E+02,0.035721519
8.42E+02,0.034427276
8.43E+02,0.038192844
8.43E+02,0.043932756
8.43E+02,0.040212167
8.44E+02,0.035498856
8.44E+02,0.04324625
8.44E+02,0.036314535
8.45E+02,0.038915684
8.45E+02,0.041012724
8.45E+02,0.036202192
8.46E+02,0.036107045
8.46E+02,0.030219914
8.46E+02,0.04519059
8.46E+02,0.035742185
8.47E+02,0.041462764
8.47E+02,0.040848012
8.47E+02,0.036895883
8.48E+02,0.038026316
8.48E+02,0.037410646
8.48E+02,0.038347919
8.49E+02,0.035360819
8.49E+02,0.035995467
8.49E+02,0.039241481
8.50E+02,0.047001909
8.50E+02,0.033769622
8.50E+02,0.045999839
8.51E+02,0.040079253
8.51E+02,0.037568248
8.51E+02,0.035857786
8.51E+02,0.044027597
8.52E+02,0.041243833
8.52E+02,0.043855758
8.52E+02,0.040482844
8.53E+02,0.030854252
8.53E+02,0.03668466
8.53E+02,0.046398067
8.54E+02,0.038352454
8.54E+02,0.047337579
8.54E+02,0.047003441
8.55E+02,0.047740041
8.55E+02,0.045128788
8.55E+02,0.04611037
8.55E+02,0.049666596
8.56E+02,0.045065456
8.56E+02,0.043811879
8.56E+02,0.041984515
8.57E+02,0.052147117
8.57E+02,0.04605526
857.361,0.041623987
857.672,0.037413179
857.982,0.041926993
858.293,0.04644203
858.603,0.038754637
858.913,0.045944549
859.223,0.046410082
859.533,0.047485104
859.844,0.050074055
860.154,0.051465856
860.464,0.043861968
860.773,0.050973024
861.083,0.050901193
861.393,0.042571688
861.703,0.056803548
862.013,0.042060769
862.322,0.046543663
862.632,0.045200045
862.941,0.046624909
863.251,0.054568864
863.56,0.036695995
863.869,0.054735694
864.179,0.048968807
864.488,0.050435692
864.797,0.050967084
865.106,0.046992624
865.415,0.052919005
865.724,0.055437133
866.033,0.051178122
866.342,0.035174529
866.651,0.044444289
866.96,0.042361057
867.269,0.054685344
867.577,0.054591443
867.886,0.047869381
868.195,0.042090698
868.503,0.060023648
868.812,0.051554752
869.12,0.045694514
869.428,0.047635414
869.737,0.051586329
870.045,0.053541269
870.353,0.052084621
870.661,0.056891558
870.969,0.055809403
871.277,0.059587877
871.585,0.052863171
871.893,0.049573791
872.201,0.054810568
872.509,0.055765218
872.817,0.046301115
873.124,0.05520726
873.432,0.047910347
873.739,0.057920811
874.047,0.057822941
874.354,0.056230126
874.662,0.063854483
874.969,0.050458706
875.276,0.060342521
875.584,0.069217564
875.891,0.050008312
876.198,0.066050411
876.505,0.059939622
876.812,0.060626931
877.119,0.071655869
877.426,0.058247871
877.733,0.055846736
878.04,0.05968889
878.346,0.06047025
878.653,0.064772824
878.96,0.047645446
879.266,0.063089299
879.573,0.053484291
879.879,0.06747316
880.185,0.047167336
880.492,0.054791424
880.798,0.063684575
881.104,0.064912293
881.411,0.064061217
881.717,0.061084213
882.023,0.058550325
882.329,0.069525997
882.635,0.070410676
882.941,0.065710598
883.246,0.072150539
883.552,0.077359926
883.858,0.049010072
884.164,0.07427507
884.469,0.070203813
884.775,0.066573348
885.08,0.052222417
885.386,0.077065594
885.691,0.077908593
885.996,0.077753201
886.302,0.064010279
886.607,0.068826225
886.912,0.05952235
887.217,0.063831871
887.522,0.05901072
887.827,0.059694552
888.132,0.063143151
888.437,0.067536726
888.742,0.083147178
889.046,0.074134384
889.351,0.084219318
889.656,0.072806405
889.96,0.06792279
890.265,0.085278959
890.569,0.069337952
890.874,0.085334976
891.178,0.065944531
891.483,0.074272593
891.787,0.07738038
892.091,0.07699681
892.395,0.080920319
892.699,0.078198031
893.003,0.08790177
893.307,0.078759842
893.611,0.078868281
893.915,0.06735561
894.219,0.083580389
894.523,0.079840204
894.826,0.066344456
895.13,0.059609976
895.433,0.076564997
895.737,0.072283684
896.04,0.062534025
896.344,0.07762281
896.647,0.076359583
896.95,0.062054807
897.254,0.079790447
897.557,0.070941467
897.86,0.077567263
898.163,0.056046661
898.466,0.081900135
898.769,0.080048819
899.072,0.071657278
899.375,0.084067863
899.677,0.064368866
899.98,0.072132777
900.283,0.071354342
900.585,0.08584433
900.888,0.078822679
901.191,0.060518563
901.493,0.093777462
901.795,0.079986866
902.098,0.079177242
902.4,0.071556362
902.702,0.079086831
903.004,0.077234478
903.306,0.083769019
903.608,0.072918166
903.91,0.084196113
904.212,0.082930497
904.514,0.084220127
904.816,0.083350673
905.118,0.085193519
905.42,0.083861977
905.721,0.080914617
906.023,0.066551156
906.324,0.080319703
906.626,0.087110905
906.927,0.086310467
907.228,0.088209409
907.53,0.085800768
907.831,0.082910743
908.132,0.089903694
908.433,0.081978031
908.734,0.08345579
909.035,0.083420889
909.336,0.073134651
909.637,0.09504592
909.938,0.097225189
910.239,0.071896629
910.54,0.087819032
910.84,0.080669661
911.141,0.083929988
911.441,0.079168942
911.742,0.084245729
912.042,0.088772546
912.343,0.089038655
912.643,0.093008537
912.943,0.095816307
913.244,0.075906163
913.544,0.085299648
913.844,0.122118136
914.144,0.08558695
914.444,0.086117702
914.744,0.090911134
915.044,0.101444981
915.343,0.114519479
915.643,0.107164935
915.943,0.095285325
916.243,0.106125444
916.542,0.09392743
916.842,0.113896128
917.141,0.106192485
917.441,0.100319318
917.74,0.09568921
918.039,0.092306456
918.338,0.101551824
918.638,0.087406832
918.937,0.100760012
919.236,0.102694067
919.535,0.086284628
919.834,0.088097879
920.133,0.10328711
920.431,0.109563732
920.73,0.105366182
921.029,0.108221824
921.328,0.112587247
921.626,0.096974362
921.925,0.09772285
922.223,0.09981742
922.522,0.109320082
922.82,0.09531093
923.118,0.116203492
923.417,0.121535995
923.715,0.109788182
924.013,0.133482549
924.311,0.120627983
924.609,0.123777461
924.907,0.097375268
925.205,0.115369147
925.503,0.105897472
925.801,0.126628009
926.098,0.154008972
926.396,0.11724861
926.694,0.112374233
926.991,0.123599996
927.289,0.126972549
927.586,0.103033407
927.884,0.126387687
928.181,0.155883065
928.478,0.127287237
928.775,0.163324888
929.073,0.136089451
929.37,0.116385912
929.667,0.133991589
929.964,0.122764952
930.261,0.135537117
930.557,0.143002517
930.854,0.144194372
931.151,0.136317134
931.448,0.131161472
931.744,0.169470117
932.041,0.15222911
932.337,0.142329812
932.634,0.140719714
932.93,0.141824817
933.227,0.156769719
933.523,0.156106418
933.819,0.153353621
934.115,0.161363978
934.412,0.16035278
934.708,0.164585754
935.004,0.14456728
935.3,0.135446061
935.595,0.143628354
935.891,0.166504036
936.187,0.157317657
936.483,0.148881948
936.778,0.172437178
937.074,0.17395346
937.369,0.14763107
937.665,0.18069893
937.96,0.155557858
938.256,0.125536469
938.551,0.173506561
938.846,0.153509903
939.141,0.165093794
939.437,0.157160879
939.732,0.174767281
940.027,0.191210361
940.322,0.201929651
940.617,0.173616397
940.911,0.193807277
941.206,0.187111413
941.501,0.174638806
941.796,0.195432988
942.09,0.167695437
942.385,0.211073004
942.679,0.207662923
942.974,0.188828616
943.268,0.175028063
943.562,0.209612331
943.857,0.202540383
944.151,0.144858941
944.445,0.198357053
944.739,0.186567814
945.033,0.210888848
945.327,0.179203318
945.621,0.222771386
945.915,0.183874074
946.208,0.214725018
946.502,0.252824635
946.796,0.23244719
947.089,0.204271175
947.383,0.204155457
947.676,0.218613591
947.97,0.190198186
948.263,0.226486399
948.557,0.205987379
948.85,0.234070734
949.143,0.229811445
949.436,0.255305053
949.729,0.199889137
950.022,0.247068551
950.315,0.269294685
950.608,0.237589159
950.901,0.218167345
951.194,0.214810306
951.487,0.199231286
951.779,0.215336065
952.072,0.202514655
952.364,0.202783274
952.657,0.247509823
952.949,0.247960475
953.242,0.280403595
953.534,0.269631263
953.826,0.222554864
954.118,0.291769467
954.411,0.291112479
954.703,0.260150731
954.995,0.269779928
955.287,0.245534831
955.579,0.29090954
955.87,0.310038691
956.162,0.298103494
956.454,0.304680537
956.746,0.256896297
957.037,0.251479303
957.329,0.291142422
957.62,0.259004352
957.912,0.325168688
958.203,0.298633164
958.494,0.325048105
958.786,0.32820469
959.077,0.288867461
959.368,0.32351765
959.659,0.299728197
959.95,0.322773193
960.241,0.313309774
960.532,0.347478496
960.823,0.288142451
961.114,0.355101189
961.404,0.37299741
961.695,0.37799583
961.986,0.334576115
962.276,0.392481775
962.567,0.335668375
962.857,0.351685478
963.147,0.35948851
963.438,0.262203411
963.728,0.332885618
964.018,0.383655269
964.308,0.328265802
964.598,0.385590641
964.888,0.393830145
965.178,0.35665874
965.468,0.397802926
965.758,0.275525627
966.048,0.369308756
966.338,0.388882449
966.627,0.386516951
966.917,0.354915369
967.206,0.337233563
967.496,0.380720143
967.785,0.327443148
968.075,0.441702486
968.364,0.437147795
968.653,0.399614138
968.942,0.418952205
969.232,0.451298489
969.521,0.416043786
969.81,0.439706727
970.099,0.388971828
970.388,0.440498844
970.676,0.391425328
970.965,0.380870751
971.254,0.438140172
971.543,0.408960263
971.831,0.403380922
972.12,0.459983735
972.408,0.462437598
972.697,0.491606572
972.985,0.429836281
973.273,0.497197914
973.561,0.467083281
973.85,0.439488166
974.138,0.478071152
974.426,0.48574649
974.714,0.512007483
975.002,0.408521211
975.29,0.472796821
975.577,0.52946146
975.865,0.559202228
976.153,0.519707348
976.441,0.508335938
976.728,0.458848038
977.016,0.442884784
977.303,0.51302957
977.59,0.518041726
977.878,0.594273311
978.165,0.46494036
978.452,0.523381269
978.74,0.529344811
979.027,0.523789892
979.314,0.644994025
979.601,0.544025694
979.888,0.519631328
980.174,0.643978122
980.461,0.610109079
980.748,0.639988305
981.035,0.678918879
981.321,0.647616501
981.608,0.628330428
981.894,0.606122036
982.181,0.569256993
982.467,0.494801816
982.754,0.550691254
983.04,0.552340469
983.326,0.462116557
983.612,0.758375253
983.898,0.629298568
984.184,0.614499479
984.47,0.692501607
984.756,0.598590542
985.042,0.633898167
985.328,0.551488124
985.614,0.544210057
985.899,0.590893462
986.185,0.678690118
986.47,0.645166229
986.756,0.539265792
987.041,0.683442872
987.327,0.637211983
987.612,0.675163008
987.897,0.662381621
988.182,0.754397288
988.468,0.73737136
988.753,0.634501112
989.038,0.698391353
989.323,0.895452445
989.607,0.668863343
989.892,0.703317219
990.177,0.733339994
990.462,0.678313206
990.746,0.667547494
991.031,0.815633373
991.315,0.791763106
991.6,0.860799859
991.884,1.021445536
992.169,0.930299379
992.453,0.877153232
992.737,0.905981086
993.021,0.925301999
993.305,0.750901408
993.59,0.621999293
993.874,0.93376629
994.157,0.791555229
994.441,0.919545967
994.725,1.006233485
995.009,0.8134073
995.293,0.860169743
995.576,0.923302682
995.86,1.02108018
996.143,1.043535827
996.427,0.854941329
996.71,0.797424892
996.993,0.884783016
997.277,1.010982068
997.56,0.961512218
997.843,1.173073747
998.126,0.884344077
998.409,0.920476618
998.692,1.079002977
998.975,1.142378805
999.258,1.080676041
999.541,1.046658427
999.823,1.179317009
1000.106,0.970006776
1000.388,1.200354816
1000.671,1.021878881
1000.954,1.465781911
1001.236,0.954849492
1001.518,1.098442339
1001.801,1.267641149
1002.083,1.210227189
1002.365,1.285502897
1002.647,1.241027136
1002.929,1.24459384
1003.211,1.198967634
1003.493,1.023655478
1003.775,1.036934834
1004.057,1.300558356
1004.338,1.052753507
1004.62,1.3791065
1004.902,1.178028873
1005.183,1.322876364
1005.465,1.226015825
1005.746,1.044359225
1006.028,1.392270615
1006.309,1.404913113
1006.59,1.427239075
1006.871,1.284521031
1007.153,1.320376816
1007.434,1.386628013
1007.715,1.287977067
1007.996,1.418832067
1008.277,1.499212163
1008.557,1.531256728
1008.838,1.547796553
1009.119,1.767405754
1009.4,1.564525765
1009.68,1.314719895
1009.961,1.80780482
1010.241,1.777204111
1010.522,1.762062705
1010.802,1.702089333
1011.082,1.78346748
1011.362,1.726991991
1011.643,1.595135544
1011.923,1.75330363
1012.203,1.419834785
1012.483,1.74130002
1012.763,1.693919327
1013.042,2.32790846
1013.322,2.424852125
1013.602,1.946267446
1013.882,1.877541162
1014.161,1.583750226
1014.441,1.84182443
1014.72,1.649689808
1015,1.941938266
1015.279,1.901121284
1015.558,1.852841792
1015.838,1.603278465
1016.117,1.723209615
1016.396,1.842155837
1016.675,1.962988953
1016.954,1.945181971
1017.233,1.759124993
1017.512,2.354377714
1017.791,2.255888351
1018.07,2.312123756
1018.348,1.893802842
1018.627,2.595611546
1018.905,2.354473832
1019.184,2.559798425
1019.462,2.292975153
1019.741,2.219444779
1020.019,2.115148091
1020.297,2.235169418
1020.576,2.26099465
1020.854,2.378860848
1021.132,2.224165572
1021.41,2.223050633
1021.688,2.221936157
