Wavelength, W/m2 
346.47,1.147190911
346.85,0.307296473
347.23,0.130200874
347.611,0.110010942
347.991,0.057655628
348.371,0.080651087
348.751,0.054333433
349.131,0.051562595
349.511,0.052481859
349.891,0.060033713
350.27,0.0587697
350.65,0.046895092
351.03,0.052580448
351.41,0.056379511
351.79,0.05047424
352.169,0.049304992
352.549,0.048194335
352.928,0.061793723
353.308,0.061831991
353.687,0.0561062
354.067,0.054811335
3.54E+02,0.049651774
3.55E+02,0.048132939
3.55E+02,0.0521653
3.56E+02,0.05446354
3.56E+02,0.052956663
3.56E+02,0.065665875
3.57E+02,0.048160432
3.57E+02,0.045573633
3.57E+02,0.050854388
3.58E+02,0.04756259
3.58E+02,0.038631052
3.59E+02,0.055042308
3.59E+02,0.046019157
3.59E+02,0.054088352
3.60E+02,0.047789655
3.60E+02,0.052336505
3.61E+02,0.041236224
3.61E+02,0.038683445
3.61E+02,0.041818282
3.62E+02,0.038854742
3.62E+02,0.052451702
3.62E+02,0.039539777
3.63E+02,0.045239435
3.63E+02,0.040010779
3.64E+02,0.034804159
3.64E+02,0.048129024
3.64E+02,0.038983482
3.65E+02,0.043794815
3.65E+02,0.038260491
3.65E+02,0.042367608
3.66E+02,0.043177997
3.66E+02,0.041316688
3.67E+02,0.038100005
3.67E+02,0.03319848
3.67E+02,0.036084515
3.68E+02,0.030437831
3.68E+02,0.03749365
3.68E+02,0.036002594
3.69E+02,0.028003998
3.69E+02,0.036496563
3.70E+02,0.036950037
3.70E+02,0.036232625
3.70E+02,0.040425298
3.71E+02,0.040505445
3.71E+02,0.038609241
3.71E+02,0.031249843
3.72E+02,0.035352356
3.72E+02,0.033501316
3.73E+02,0.04071916
3.73E+02,0.034562103
3.73E+02,0.032107033
3.74E+02,0.028391027
3.74E+02,0.025705019
3.74E+02,0.034025047
3.75E+02,0.027977912
3.75E+02,0.032933154
3.76E+02,0.039941125
3.76E+02,0.040208538
3.76E+02,0.030961213
3.77E+02,0.032440044
3.77E+02,0.028019305
3.78E+02,0.027266068
3.78E+02,0.031624566
3.78E+02,0.027920122
3.79E+02,0.025097257
3.79E+02,0.026776294
3.79E+02,0.032563765
3.80E+02,0.025782574
3.80E+02,0.023480976
3.81E+02,0.029285185
3.81E+02,0.032396423
3.81E+02,0.029416192
3.82E+02,0.027225217
3.82E+02,0.026709055
3.82E+02,0.030220073
3.83E+02,0.032264304
3.83E+02,0.023054207
3.84E+02,0.027188408
3.84E+02,0.026519194
3.84E+02,0.028335673
3.85E+02,0.027363912
3.85E+02,0.022129518
3.85E+02,0.022025138
3.86E+02,0.027158441
3.86E+02,0.024436269
3.87E+02,0.025097707
3.87E+02,0.027725692
3.87E+02,0.025141476
3.88E+02,0.020445852
3.88E+02,0.027118725
3.88E+02,0.023129621
3.89E+02,0.021070332
3.89E+02,0.02081632
3.90E+02,0.021871302
3.90E+02,0.016734673
3.90E+02,0.018323641
3.91E+02,0.020558607
3.91E+02,0.019424685
3.91E+02,0.012525278
3.92E+02,0.020971272
3.92E+02,0.023918148
3.93E+02,0.022792254
3.93E+02,0.021600956
3.93E+02,0.01861136
3.94E+02,0.017101374
3.94E+02,0.023188249
3.94E+02,0.021373945
3.95E+02,0.017970636
3.95E+02,0.022452475
3.96E+02,0.018117247
3.96E+02,0.017289162
3.96E+02,0.020388808
3.97E+02,0.016433306
3.97E+02,0.020156279
3.97E+02,0.020077035
3.98E+02,0.017129108
3.98E+02,0.017398732
3.99E+02,0.014762411
3.99E+02,0.018523365
3.99E+02,0.018189532
4.00E+02,0.020419765
4.00E+02,0.016985763
4.00E+02,0.014933764
4.01E+02,0.015836639
4.01E+02,0.016305244
4.02E+02,0.022547556
4.02E+02,0.019563902
4.02E+02,0.018002642
4.03E+02,0.019732679
4.03E+02,0.017822991
4.03E+02,0.029039417
4.04E+02,0.039361024
4.04E+02,0.041583707
4.05E+02,0.026159434
4.05E+02,0.017754017
4.05E+02,0.014853621
4.06E+02,0.01673374
4.06E+02,0.018462002
4.06E+02,0.019563358
4.07E+02,0.019946605
4.07E+02,0.01852965
4.08E+02,0.016993212
4.08E+02,0.015796444
4.08E+02,0.014842082
4.09E+02,0.015788276
4.09E+02,0.016699122
4.09E+02,0.016382644
4.10E+02,0.015168829
4.10E+02,0.013065475
4.11E+02,0.017126455
4.11E+02,0.013133206
4.11E+02,0.014790269
4.12E+02,0.015702766
4.12E+02,0.018495515
4.12E+02,0.019701648
4.13E+02,0.014590421
4.13E+02,0.013096273
4.14E+02,0.013746154
4.14E+02,0.033705207
4.14E+02,0.014227182
4.15E+02,0.014981601
4.15E+02,0.013116257
4.15E+02,0.013159644
4.16E+02,0.014301496
4.16E+02,0.013841995
4.17E+02,0.015760108
4.17E+02,0.017168301
4.17E+02,0.017886402
4.18E+02,0.015748337
4.18E+02,0.014670827
4.18E+02,0.018971888
4.19E+02,0.01520565
4.19E+02,0.014778464
4.19E+02,0.013691505
4.20E+02,0.013735564
4.20E+02,0.013593319
4.21E+02,0.015214907
4.21E+02,0.011633571
4.21E+02,0.016703674
4.22E+02,0.015693119
4.22E+02,0.013414706
4.22E+02,0.015480602
4.23E+02,0.01494817
4.23E+02,0.01244357
4.24E+02,0.011956021
4.24E+02,0.015137545
4.24E+02,0.012912467
4.25E+02,0.0152471
4.25E+02,0.014363263
4.25E+02,0.014366718
4.26E+02,0.013761156
4.26E+02,0.016472967
4.27E+02,0.014828926
4.27E+02,0.01396978
4.27E+02,0.013639724
4.28E+02,0.016379364
4.28E+02,0.01457799
4.28E+02,0.013057805
4.29E+02,0.015427221
4.29E+02,0.011104506
4.30E+02,0.012540437
4.30E+02,0.013803594
4.30E+02,0.011935065
4.31E+02,0.014322835
4.31E+02,0.012719332
4.31E+02,0.014637646
4.32E+02,0.01504694
4.32E+02,0.013618069
4.32E+02,0.017483778
4.33E+02,0.013738531
4.33E+02,0.012949292
4.34E+02,0.017030834
4.34E+02,0.013121212
4.34E+02,0.022130584
4.35E+02,0.062050343
4.35E+02,0.081186529
4.35E+02,0.077845499
4.36E+02,0.035656715
4.36E+02,0.018650435
4.37E+02,0.015092206
4.37E+02,0.012622752
4.37E+02,0.014496455
4.38E+02,0.012588026
4.38E+02,0.013422606
4.38E+02,0.01286826
4.39E+02,0.014046688
4.39E+02,0.012129421
4.40E+02,0.016395854
4.40E+02,0.012462009
4.40E+02,0.012002704
4.41E+02,0.01286647
4.41E+02,0.014338129
4.41E+02,0.014911573
4.42E+02,0.01312565
4.42E+02,0.013311132
4.42E+02,0.013295309
4.43E+02,0.013424935
4.43E+02,0.015344639
4.44E+02,0.01356937
4.44E+02,0.011926722
4.44E+02,0.013838346
4.45E+02,0.013910555
4.45E+02,0.0121977
4.45E+02,0.012788297
4.46E+02,0.013120819
4.46E+02,0.013924398
4.47E+02,0.011999217
4.47E+02,0.01249289
4.47E+02,0.013635101
4.48E+02,0.013896118
4.48E+02,0.012708319
4.48E+02,0.011009524
4.49E+02,0.013955551
4.49E+02,0.013616982
4.50E+02,0.013719317
4.50E+02,0.012824148
4.50E+02,0.013562392
4.51E+02,0.014390772
4.51E+02,0.013913117
4.51E+02,0.012956718
4.52E+02,0.012626457
4.52E+02,0.015652102
4.52E+02,0.012786181
4.53E+02,0.013249303
4.53E+02,0.012168923
4.54E+02,0.014754215
4.54E+02,0.014155894
4.54E+02,0.014815776
4.55E+02,0.012688087
4.55E+02,0.012523316
4.55E+02,0.013509962
4.56E+02,0.011692918
4.56E+02,0.014879468
4.57E+02,0.013805211
4.57E+02,0.011925428
4.57E+02,0.013224337
4.58E+02,0.011515829
4.58E+02,0.009936365
4.58E+02,0.012510545
4.59E+02,0.012330574
4.59E+02,0.012431063
4.59E+02,0.01304343
4.60E+02,0.009836157
4.60E+02,0.010985036
4.61E+02,0.011430104
4.61E+02,0.01134308
4.61E+02,0.011383375
4.62E+02,0.012527695
4.62E+02,0.011377748
4.62E+02,0.011025895
4.63E+02,0.011518418
4.63E+02,0.013929672
4.63E+02,0.011660467
4.64E+02,0.012411529
4.64E+02,0.008863361
4.65E+02,0.011514853
4.65E+02,0.010761297
4.65E+02,0.009146096
4.66E+02,0.013788924
4.66E+02,0.012755978
4.66E+02,0.012388464
4.67E+02,0.010777746
4.67E+02,0.012546979
4.68E+02,0.010685993
4.68E+02,0.012234388
4.68E+02,0.010442473
4.69E+02,0.012281928
4.69E+02,0.010102093
4.69E+02,0.010586364
4.70E+02,0.011549647
4.70E+02,0.012442076
4.70E+02,0.011307923
4.71E+02,0.008527445
4.71E+02,0.009478283
4.72E+02,0.011531516
4.72E+02,0.011922656
4.72E+02,0.0106484
4.73E+02,0.011217642
4.73E+02,0.011545332
4.73E+02,0.010670872
4.74E+02,0.009923954
4.74E+02,0.010349387
4.74E+02,0.011926701
4.75E+02,0.010793675
4.75E+02,0.011853427
4.76E+02,0.008621088
4.76E+02,0.010974392
4.76E+02,0.010072599
4.77E+02,0.009469527
4.77E+02,0.009974006
4.77E+02,0.010572103
4.78E+02,0.010685052
4.78E+02,0.008821224
4.79E+02,0.008700771
4.79E+02,0.010195642
4.79E+02,0.010357559
4.80E+02,0.009568611
4.80E+02,0.009604227
4.80E+02,0.010702628
4.81E+02,0.010286155
4.81E+02,0.008509486
4.81E+02,0.008103551
4.82E+02,0.009314094
4.82E+02,0.009977888
4.83E+02,0.009518466
4.83E+02,0.009476462
4.83E+02,0.010131559
4.84E+02,0.009701904
4.84E+02,0.009252277
4.84E+02,0.0116889
4.85E+02,0.009637061
4.85E+02,0.010353245
4.85E+02,0.009402432
4.86E+02,0.00924597
4.86E+02,0.010800877
4.87E+02,0.01080827
4.87E+02,0.010784794
4.87E+02,0.008279585
4.88E+02,0.009512286
4.88E+02,0.009573151
4.88E+02,0.008809627
4.89E+02,0.009609861
4.89E+02,0.009602672
4.89E+02,0.009355531
4.90E+02,0.009301114
4.90E+02,0.009212371
4.91E+02,0.008339199
4.91E+02,0.008613813
4.91E+02,0.007775952
4.92E+02,0.007890902
4.92E+02,0.009149248
4.92E+02,0.008487833
4.93E+02,0.008152289
4.93E+02,0.007725665
4.93E+02,0.00892467
4.94E+02,0.007285981
4.94E+02,0.008483741
4.95E+02,0.008678309
4.95E+02,0.00892124
4.95E+02,0.007837389
4.96E+02,0.007406289
4.96E+02,0.00821167
4.96E+02,0.008448591
4.97E+02,0.006922684
4.97E+02,0.007952999
4.97E+02,0.007410416
4.98E+02,0.00779987
4.98E+02,0.008892626
4.99E+02,0.007694743
4.99E+02,0.007233974
4.99E+02,0.008438471
5.00E+02,0.008013501
5.00E+02,0.008110672
5.00E+02,0.006340172
5.01E+02,0.007649667
5.01E+02,0.007307108
5.01E+02,0.007731533
5.02E+02,0.007796169
5.02E+02,0.00873477
5.03E+02,0.008357494
5.03E+02,0.008529482
5.03E+02,0.007212745
5.04E+02,0.008041493
5.04E+02,0.007778707
5.04E+02,0.00708307
5.05E+02,0.007184213
5.05E+02,0.006382737
5.05E+02,0.00720501
5.06E+02,0.006513691
5.06E+02,0.00643034
5.07E+02,0.006351604
5.07E+02,0.008164069
5.07E+02,0.007978904
5.08E+02,0.006144793
5.08E+02,0.007523627
5.08E+02,0.006623485
5.09E+02,0.007998303
5.09E+02,0.006219888
5.09E+02,0.007630799
5.10E+02,0.007975661
5.10E+02,0.007574398
5.11E+02,0.007491904
5.11E+02,0.00745193
5.11E+02,0.006947327
5.12E+02,0.008242404
5.12E+02,0.007388474
5.12E+02,0.007203606
5.13E+02,0.006423009
5.13E+02,0.007429046
5.13E+02,0.006929227
5.14E+02,0.007410398
5.14E+02,0.007124692
5.15E+02,0.007363724
5.15E+02,0.007074151
5.15E+02,0.007305786
5.16E+02,0.006913345
5.16E+02,0.006557689
5.16E+02,0.006614686
5.17E+02,0.007021332
5.17E+02,0.007116015
5.17E+02,0.006997963
5.18E+02,0.006401488
5.18E+02,0.007801926
5.18E+02,0.006349121
5.19E+02,0.006306365
5.19E+02,0.007567004
5.20E+02,0.008751864
5.20E+02,0.007068489
5.20E+02,0.00716832
5.21E+02,0.006780197
5.21E+02,0.008300919
5.21E+02,0.007106232
5.22E+02,0.0076426
5.22E+02,0.007529437
5.22E+02,0.007281033
5.23E+02,0.006657648
5.23E+02,0.006880007
5.24E+02,0.007205277
5.24E+02,0.007262463
5.24E+02,0.007752115
5.25E+02,0.007443642
5.25E+02,0.007530352
5.25E+02,0.006620028
5.26E+02,0.007040039
5.26E+02,0.007698293
5.26E+02,0.007990163
5.27E+02,0.006522919
5.27E+02,0.008242944
5.27E+02,0.007536157
5.28E+02,0.006800575
5.28E+02,0.007854508
5.29E+02,0.007578209
5.29E+02,0.007442911
5.29E+02,0.008755524
5.30E+02,0.008450117
5.30E+02,0.007256292
5.30E+02,0.007773424
5.31E+02,0.008229246
5.31E+02,0.008686902
5.31E+02,0.007862135
5.32E+02,0.007462576
5.32E+02,0.008837307
5.33E+02,0.008474006
5.33E+02,0.008241542
5.33E+02,0.008632547
5.34E+02,0.007580422
5.34E+02,0.008395351
5.34E+02,0.008266436
5.35E+02,0.006724356
5.35E+02,0.009084845
5.35E+02,0.008163097
5.36E+02,0.007964202
5.36E+02,0.009143272
5.36E+02,0.007997271
5.37E+02,0.007670793
5.37E+02,0.008978038
5.38E+02,0.009401563
5.38E+02,0.010193327
5.38E+02,0.010452676
5.39E+02,0.008914025
5.39E+02,0.010155062
5.39E+02,0.011297619
5.40E+02,0.010979683
5.40E+02,0.012681847
5.40E+02,0.013077793
5.41E+02,0.014217926
5.41E+02,0.015596844
5.41E+02,0.014380546
5.42E+02,0.013784471
5.42E+02,0.012747396
5.43E+02,0.013759559
5.43E+02,0.013601622
5.43E+02,0.014262207
5.44E+02,0.014299644
5.44E+02,0.013117708
5.44E+02,0.015050854
5.45E+02,0.026735917
5.45E+02,0.041289214
5.45E+02,0.050556127
5.46E+02,0.042498361
5.46E+02,0.031061143
5.46E+02,0.021428246
5.47E+02,0.017159203
5.47E+02,0.014431998
5.48E+02,0.012879384
5.48E+02,0.012683324
5.48E+02,0.012851534
5.49E+02,0.012161948
5.49E+02,0.011174763
5.49E+02,0.010681852
5.50E+02,0.012352814
5.50E+02,0.011493514
5.50E+02,0.010897161
5.51E+02,0.011647414
5.51E+02,0.010729944
5.51E+02,0.011448118
5.52E+02,0.010887161
5.52E+02,0.010522733
5.53E+02,0.009050498
5.53E+02,0.010487798
5.53E+02,0.011111072
5.54E+02,0.010649588
5.54E+02,0.010001188
5.54E+02,0.010000909
5.55E+02,0.011039908
5.55E+02,0.011007472
5.55E+02,0.010511742
5.56E+02,0.00959713
5.56E+02,0.009597953
5.56E+02,0.010833803
5.57E+02,0.010701211
5.57E+02,0.010827328
5.58E+02,0.010559979
5.58E+02,0.010162274
5.58E+02,0.010712119
5.59E+02,0.010644919
5.59E+02,0.011096717
5.59E+02,0.011094903
5.60E+02,0.011417473
5.60E+02,0.011181768
5.60E+02,0.010172771
5.61E+02,0.010593496
5.61E+02,0.011570436
5.61E+02,0.011996313
5.62E+02,0.011736341
5.62E+02,0.01170592
5.63E+02,0.011249868
5.63E+02,0.009914709
5.63E+02,0.011892227
5.64E+02,0.011634082
5.64E+02,0.011080454
5.64E+02,0.011824411
5.65E+02,0.011947985
5.65E+02,0.011809384
5.65E+02,0.011737362
5.66E+02,0.01186624
5.66E+02,0.012539516
5.66E+02,0.012209858
5.67E+02,0.011625714
5.67E+02,0.011334174
5.67E+02,0.012232526
5.68E+02,0.012255008
5.68E+02,0.011441906
5.69E+02,0.011984176
5.69E+02,0.011954203
5.69E+02,0.012081189
5.70E+02,0.011785665
5.70E+02,0.01297237
5.70E+02,0.011896507
5.71E+02,0.012570479
5.71E+02,0.014048746
5.71E+02,0.01333877
5.72E+02,0.011797086
5.72E+02,0.011216806
5.72E+02,0.012887579
5.73E+02,0.01220682
5.73E+02,0.01198683
5.73E+02,0.012504289
5.74E+02,0.013574267
5.74E+02,0.012425833
5.75E+02,0.011592271
5.75E+02,0.012374034
5.75E+02,0.013601928
5.76E+02,0.016624237
5.76E+02,0.017397432
5.76E+02,0.017969834
5.77E+02,0.016302741
5.77E+02,0.0165403
5.77E+02,0.015056743
5.78E+02,0.017466188
5.78E+02,0.018621933
5.78E+02,0.018759958
5.79E+02,0.017308209
5.79E+02,0.016711982
5.80E+02,0.017138944
5.80E+02,0.014691614
5.80E+02,0.01477043
5.81E+02,0.014754694
5.81E+02,0.01355489
5.81E+02,0.015020053
5.82E+02,0.01537499
5.82E+02,0.015483172
5.82E+02,0.015317653
5.83E+02,0.015441296
5.83E+02,0.014344653
5.83E+02,0.014666942
5.84E+02,0.014153481
5.84E+02,0.01581226
5.84E+02,0.015263733
5.85E+02,0.015396957
5.85E+02,0.015383343
5.85E+02,0.015478622
5.86E+02,0.015975909
5.86E+02,0.016075398
5.87E+02,0.016549415
5.87E+02,0.016781755
5.87E+02,0.016381363
5.88E+02,0.016791806
5.88E+02,0.016518392
5.88E+02,0.01615225
5.89E+02,0.016832255
5.89E+02,0.016120094
5.89E+02,0.016189609
5.90E+02,0.017530912
5.90E+02,0.01694564
5.90E+02,0.014953024
5.91E+02,0.016954682
5.91E+02,0.015770737
5.91E+02,0.017082798
5.92E+02,0.015695697
5.92E+02,0.018865386
5.93E+02,0.017821898
5.93E+02,0.017995729
5.93E+02,0.018134162
5.94E+02,0.017724041
5.94E+02,0.0167392
5.94E+02,0.01821174
5.95E+02,0.018387686
5.95E+02,0.018536948
5.95E+02,0.017376923
5.96E+02,0.019289147
5.96E+02,0.019779507
5.96E+02,0.019381802
5.97E+02,0.019455085
5.97E+02,0.019891178
5.97E+02,0.021733045
5.98E+02,0.020329173
5.98E+02,0.02158695
5.98E+02,0.021940843
5.99E+02,0.022149599
5.99E+02,0.022249173
6.00E+02,0.02342254
6.00E+02,0.023130458
6.00E+02,0.023014905
6.01E+02,0.023650847
6.01E+02,0.023995604
6.01E+02,0.026145883
6.02E+02,0.02462725
6.02E+02,0.025224404
6.02E+02,0.025709914
6.03E+02,0.026891122
6.03E+02,0.027465519
6.03E+02,0.027758353
6.04E+02,0.029305956
6.04E+02,0.030737827
6.04E+02,0.030025577
6.05E+02,0.029229283
6.05E+02,0.030953549
6.05E+02,0.030474631
6.06E+02,0.031629522
6.06E+02,0.033574054
6.07E+02,0.034003215
6.07E+02,0.034142474
6.07E+02,0.036902383
6.08E+02,0.036628335
6.08E+02,0.035954974
6.08E+02,0.037115897
6.09E+02,0.039858531
6.09E+02,0.040543206
6.09E+02,0.044267209
6.10E+02,0.045567848
6.10E+02,0.051121736
6.10E+02,0.054091455
6.11E+02,0.058299005
6.11E+02,0.055126762
6.11E+02,0.054310009
6.12E+02,0.054791709
6.12E+02,0.056566884
6.12E+02,0.055536512
6.13E+02,0.056628135
6.13E+02,0.057186276
6.14E+02,0.058602996
6.14E+02,0.061335604
6.14E+02,0.062281249
6.15E+02,0.061669797
6.15E+02,0.065031148
6.15E+02,0.066417226
6.16E+02,0.067781422
6.16E+02,0.069489061
6.16E+02,0.070507561
6.17E+02,0.074549144
6.17E+02,0.076944172
6.17E+02,0.078670121
6.18E+02,0.083678059
6.18E+02,0.086430262
6.18E+02,0.088299328
6.19E+02,0.091725026
6.19E+02,0.094490859
6.19E+02,0.097038011
6.20E+02,0.10253119
6.20E+02,0.105193535
6.20E+02,0.109224633
6.21E+02,0.114474272
6.21E+02,0.114780781
6.22E+02,0.121427794
6.22E+02,0.1263808
6.22E+02,0.12800569
6.23E+02,0.136702405
6.23E+02,0.137472165
6.23E+02,0.145063788
6.24E+02,0.15016554
6.24E+02,0.155747512
6.24E+02,0.159743794
6.25E+02,0.162889717
6.25E+02,0.169163386
6.25E+02,0.173366927
6.26E+02,0.181010313
6.26E+02,0.183232475
6.26E+02,0.190243402
6.27E+02,0.19308402
6.27E+02,0.200018882
6.27E+02,0.204148745
6.28E+02,0.203677427
6.28E+02,0.209714221
6.28E+02,0.213158929
6.29E+02,0.211846175
6.29E+02,0.215065429
6.30E+02,0.212294082
6.30E+02,0.214982717
6.30E+02,0.212614981
6.31E+02,0.206658517
6.31E+02,0.202337493
6.31E+02,0.197140696
6.32E+02,0.191566738
6.32E+02,0.184474989
6.32E+02,0.179563961
6.33E+02,0.168088783
6.33E+02,0.158392796
6.33E+02,0.153127869
6.34E+02,0.142255902
6.34E+02,0.138407971
6.34E+02,0.12869854
6.35E+02,0.115690814
6.35E+02,0.111048156
6.35E+02,0.104084282
6.36E+02,0.096408959
6.36E+02,0.087277083
6.36E+02,0.083427042
6.37E+02,0.081493105
6.37E+02,0.075577977
6.37E+02,0.069249531
6.38E+02,0.06532063
6.38E+02,0.059937744
6.38E+02,0.057641891
6.39E+02,0.055035698
6.39E+02,0.052259022
6.40E+02,0.04856866
6.40E+02,0.045629834
6.40E+02,0.045128012
6.41E+02,0.041297294
6.41E+02,0.039686884
6.41E+02,0.038001445
6.42E+02,0.038022637
6.42E+02,0.034277193
6.42E+02,0.032438377
6.43E+02,0.030439671
6.43E+02,0.02962181
6.43E+02,0.030324823
6.44E+02,0.027035863
6.44E+02,0.027332618
6.44E+02,0.024812053
6.45E+02,0.024670119
6.45E+02,0.022913637
6.45E+02,0.021920503
6.46E+02,0.021752497
6.46E+02,0.020248209
6.46E+02,0.021214831
6.47E+02,0.018929638
6.47E+02,0.020921158
6.47E+02,0.019562513
6.48E+02,0.01837001
6.48E+02,0.016901769
6.48E+02,0.017381036
6.49E+02,0.014923841
6.49E+02,0.017107733
6.50E+02,0.015353394
6.50E+02,0.015430976
6.50E+02,0.013541407
6.51E+02,0.013754666
6.51E+02,0.014780299
6.51E+02,0.01263766
6.52E+02,0.013214841
6.52E+02,0.013118712
6.52E+02,0.013234659
6.53E+02,0.012862034
6.53E+02,0.013980364
6.53E+02,0.013740373
6.54E+02,0.011842966
6.54E+02,0.013206729
6.54E+02,0.010645296
6.55E+02,0.012894401
6.55E+02,0.012322816
6.55E+02,0.010906896
6.56E+02,0.013261703
6.56E+02,0.013208787
6.56E+02,0.011544649
6.57E+02,0.011105079
6.57E+02,0.010284243
6.57E+02,0.010445695
6.58E+02,0.010794766
6.58E+02,0.011387823
6.58E+02,0.010123948
6.59E+02,0.010281065
6.59E+02,0.00839071
6.59E+02,0.009409924
6.60E+02,0.010857165
6.60E+02,0.011689288
6.60E+02,0.010319171
6.61E+02,0.0109105
6.61E+02,0.011075976
6.61E+02,0.0093147
6.62E+02,0.009237804
6.62E+02,0.008967995
6.63E+02,0.009953533
6.63E+02,0.009052055
6.63E+02,0.009164127
6.64E+02,0.008842162
6.64E+02,0.008904741
6.64E+02,0.009505791
6.65E+02,0.00893397
6.65E+02,0.009881623
6.65E+02,0.008966524
6.66E+02,0.00926745
6.66E+02,0.009387503
6.66E+02,0.009016613
6.67E+02,0.009817905
6.67E+02,0.009040441
6.67E+02,0.009205512
6.68E+02,0.010070694
6.68E+02,0.009788996
6.68E+02,0.009504366
6.69E+02,0.010024468
6.69E+02,0.010241342
6.69E+02,0.008761495
6.70E+02,0.009125123
6.70E+02,0.008779877
6.70E+02,0.009457
6.71E+02,0.009880379
6.71E+02,0.008827869
6.71E+02,0.009655247
6.72E+02,0.009162961
6.72E+02,0.010048512
6.72E+02,0.008843529
6.73E+02,0.008907863
6.73E+02,0.009432077
6.73E+02,0.009913746
6.74E+02,0.008751672
6.74E+02,0.009280217
6.74E+02,0.009809625
6.75E+02,0.008537476
6.75E+02,0.00860375
6.75E+02,0.009756678
6.76E+02,0.009616866
6.76E+02,0.007915491
6.76E+02,0.009491332
6.77E+02,0.009718867
6.77E+02,0.007271938
6.78E+02,0.007964762
6.78E+02,0.008556696
6.78E+02,0.00988216
6.79E+02,0.008531446
6.79E+02,0.010076698
6.79E+02,0.0110503
6.80E+02,0.009799274
6.80E+02,0.010246724
6.80E+02,0.009576007
6.81E+02,0.007196392
6.81E+02,0.009932282
6.81E+02,0.009098005
6.82E+02,0.008481951
6.82E+02,0.009307545
6.82E+02,0.010193517
6.83E+02,0.011890832
6.83E+02,0.00910803
6.83E+02,0.009239599
6.84E+02,0.010239612
6.84E+02,0.009173352
6.84E+02,0.009904244
6.85E+02,0.010151579
6.85E+02,0.010342397
6.85E+02,0.00942515
6.86E+02,0.009120269
6.86E+02,0.009527366
6.86E+02,0.009216872
6.87E+02,0.009287144
6.87E+02,0.008972917
6.87E+02,0.008485792
6.88E+02,0.008673361
6.88E+02,0.008526315
6.88E+02,0.009053659
6.89E+02,0.010375525
6.89E+02,0.009895027
6.89E+02,0.010034183
6.90E+02,0.010289432
6.90E+02,0.009351401
6.90E+02,0.010468289
6.91E+02,0.010157076
6.91E+02,0.008635239
6.91E+02,0.009814686
6.92E+02,0.010487431
6.92E+02,0.008307584
6.92E+02,0.009200858
6.93E+02,0.010043067
6.93E+02,0.009482819
6.93E+02,0.010921892
6.94E+02,0.011479965
6.94E+02,0.011099154
6.94E+02,0.009893333
6.95E+02,0.009029925
6.95E+02,0.00989021
6.95E+02,0.009498961
6.96E+02,0.009050933
6.96E+02,0.009925219
6.96E+02,0.010197465
6.97E+02,0.01029461
6.97E+02,0.008933528
6.97E+02,0.009815955
6.98E+02,0.011014326
6.98E+02,0.011418168
6.98E+02,0.009613256
6.99E+02,0.010821823
6.99E+02,0.009808362
6.99E+02,0.00990061
7.00E+02,0.010616931
7.00E+02,0.010968926
7.00E+02,0.01074951
7.01E+02,0.009958741
7.01E+02,0.010438812
7.01E+02,0.010907423
7.02E+02,0.010875995
7.02E+02,0.012570259
7.02E+02,0.010240644
7.03E+02,0.010656644
7.03E+02,0.009341603
7.03E+02,0.008594622
7.04E+02,0.011657842
7.04E+02,0.010073623
7.04E+02,0.009916289
7.05E+02,0.011376914
7.05E+02,0.01075906
7.06E+02,0.011784194
7.06E+02,0.010507212
7.06E+02,0.010942325
7.07E+02,0.012379055
7.07E+02,0.011286529
7.07E+02,0.012259116
7.08E+02,0.010962819
7.08E+02,0.013082653
7.08E+02,0.012845755
7.09E+02,0.013298052
7.09E+02,0.011771996
7.09E+02,0.009760949
7.10E+02,0.00834918
7.10E+02,0.0108467
7.10E+02,0.010945544
7.11E+02,0.010913076
7.11E+02,0.012395694
7.11E+02,0.010563251
7.12E+02,0.012550033
7.12E+02,0.008891715
7.12E+02,0.012921965
7.13E+02,0.013319122
7.13E+02,0.010816536
7.13E+02,0.011561493
7.14E+02,0.012442902
7.14E+02,0.010483734
7.14E+02,0.012007886
7.15E+02,0.012909865
7.15E+02,0.012582134
7.15E+02,0.012476564
7.16E+02,0.011213342
7.16E+02,0.011972661
7.16E+02,0.012292805
7.17E+02,0.013645155
7.17E+02,0.012293045
7.17E+02,0.011226736
7.18E+02,0.010453603
7.18E+02,0.011374315
7.18E+02,0.011777888
7.19E+02,0.010763772
7.19E+02,0.011610067
7.19E+02,0.012383741
7.20E+02,0.012713782
7.20E+02,0.011919049
7.20E+02,0.012618547
7.21E+02,0.011827353
7.21E+02,0.012986215
7.21E+02,0.008480957
7.22E+02,0.013430334
7.22E+02,0.012849924
7.22E+02,0.014499352
7.23E+02,0.01186631
7.23E+02,0.012969232
7.23E+02,0.012308842
7.24E+02,0.011579014
7.24E+02,0.011930076
7.24E+02,0.010487051
7.25E+02,0.011684958
7.25E+02,0.011165542
7.25E+02,0.012209765
7.26E+02,0.016014673
7.26E+02,0.014563657
7.26E+02,0.014819597
7.27E+02,0.012892742
7.27E+02,0.013404355
7.27E+02,0.011214941
7.28E+02,0.011799088
7.28E+02,0.011583818
7.28E+02,0.013533193
7.29E+02,0.011724757
7.29E+02,0.012077288
7.29E+02,0.01540842
7.30E+02,0.01067078
7.30E+02,0.013945106
7.30E+02,0.013806434
7.31E+02,0.012703834
7.31E+02,0.015260419
7.31E+02,0.013829646
7.32E+02,0.012553406
7.32E+02,0.011999684
7.32E+02,0.015069082
7.32E+02,0.011967568
7.33E+02,0.011256151
7.33E+02,0.01394179
7.33E+02,0.012480614
7.34E+02,0.011424366
7.34E+02,0.013870058
7.34E+02,0.0133168
7.35E+02,0.013844352
735.147,0.011272286
7.35E+02,0.014000204
7.36E+02,0.016576715
7.36E+02,0.010943497
7.36E+02,0.014954657
7.37E+02,0.014311291
7.37E+02,0.012289436
7.37E+02,0.011897872
7.38E+02,0.014920042
7.38E+02,0.013837079
7.38E+02,0.012833189
7.39E+02,0.013383139
7.39E+02,0.013068506
7.39E+02,0.012837267
7.40E+02,0.014426903
7.40E+02,0.011152145
7.40E+02,0.013700826
7.41E+02,0.013732948
7.41E+02,0.014281707
7.41E+02,0.014048504
7.42E+02,0.014335935
7.42E+02,0.011114475
7.42E+02,0.014320387
7.43E+02,0.014436388
7.43E+02,0.01376782
7.43E+02,0.013621106
7.44E+02,0.01499196
7.44E+02,0.014133134
7.44E+02,0.016050956
7.45E+02,0.014481085
7.45E+02,0.011190354
7.45E+02,0.014749562
7.46E+02,0.014153561
7.46E+02,0.01191623
7.46E+02,0.014227437
7.47E+02,0.014529176
7.47E+02,0.013830667
7.47E+02,0.011843477
7.48E+02,0.012793163
7.48E+02,0.01337528
7.48E+02,0.013035175
7.49E+02,0.012136107
7.49E+02,0.014104442
7.49E+02,0.014412276
7.50E+02,0.016022163
7.50E+02,0.015881642
7.50E+02,0.016018409
7.51E+02,0.015117935
7.51E+02,0.017033099
7.51E+02,0.015384776
7.52E+02,0.014764932
7.52E+02,0.016975732
7.52E+02,0.014837027
7.53E+02,0.014695904
7.53E+02,0.015209551
7.53E+02,0.015837046
7.54E+02,0.013569952
7.54E+02,0.014377862
7.54E+02,0.013747769
7.55E+02,0.016608675
7.55E+02,0.015396857
7.55E+02,0.013679297
7.56E+02,0.01430135
7.56E+02,0.012777939
7.56E+02,0.015659192
7.57E+02,0.016986434
7.57E+02,0.013957982
7.57E+02,0.015479332
7.58E+02,0.01651546
7.58E+02,0.013464051
7.58E+02,0.015698704
7.59E+02,0.017843369
7.59E+02,0.02120994
7.59E+02,0.016145304
7.59E+02,0.017901375
7.60E+02,0.01379812
7.60E+02,0.018508387
7.60E+02,0.015402114
7.61E+02,0.016055364
7.61E+02,0.013131326
7.61E+02,0.018212418
7.62E+02,0.016925513
7.62E+02,0.016662665
7.62E+02,0.016605597
7.63E+02,0.016967358
7.63E+02,0.013579284
7.63E+02,0.017287406
7.64E+02,0.018495746
7.64E+02,0.01444676
7.64E+02,0.018302148
7.65E+02,0.017825638
7.65E+02,0.018297182
7.65E+02,0.016111023
7.66E+02,0.018615983
7.66E+02,0.016532873
7.66E+02,0.017970596
7.67E+02,0.01781593
7.67E+02,0.018744415
7.67E+02,0.015659319
7.68E+02,0.017457221
7.68E+02,0.017848574
7.68E+02,0.014072354
7.69E+02,0.018978849
7.69E+02,0.017609746
7.69E+02,0.019018899
7.70E+02,0.016851956
7.70E+02,0.021176597
7.70E+02,0.016760885
7.71E+02,0.01614455
7.71E+02,0.017329915
7.71E+02,0.016027011
7.72E+02,0.020310863
7.72E+02,0.02037802
7.72E+02,0.017808553
7.73E+02,0.018458796
7.73E+02,0.018984569
7.73E+02,0.01766716
7.73E+02,0.017960892
7.74E+02,0.015581069
7.74E+02,0.023643337
7.74E+02,0.017602046
7.75E+02,0.019815769
7.75E+02,0.018106979
7.75E+02,0.015554818
7.76E+02,0.020425654
7.76E+02,0.018578618
7.76E+02,0.019498078
7.77E+02,0.020553785
7.77E+02,0.019056497
7.77E+02,0.01864756
7.78E+02,0.017981216
7.78E+02,0.016579563
7.78E+02,0.020614047
7.79E+02,0.020313727
7.79E+02,0.021153795
7.79E+02,0.014072934
7.80E+02,0.018664054
7.80E+02,0.018746974
7.80E+02,0.024547184
7.81E+02,0.019417204
7.81E+02,0.02192082
7.81E+02,0.018405126
7.82E+02,0.019241361
7.82E+02,0.022286283
7.82E+02,0.02068777
7.83E+02,0.022587022
7.83E+02,0.022926897
7.83E+02,0.017884006
7.84E+02,0.019114368
7.84E+02,0.02285017
7.84E+02,0.023827878
7.85E+02,0.020025623
7.85E+02,0.018202424
7.85E+02,0.022343696
7.85E+02,0.022384026
7.86E+02,0.022799626
7.86E+02,0.017230544
7.86E+02,0.024055442
7.87E+02,0.022070869
7.87E+02,0.020754121
7.87E+02,0.023438275
7.88E+02,0.022787884
7.88E+02,0.022670091
7.88E+02,0.024693864
7.89E+02,0.022968559
7.89E+02,0.021102203
7.89E+02,0.023431919
7.90E+02,0.018590118
7.90E+02,0.01955639
7.90E+02,0.018494837
7.91E+02,0.020277029
7.91E+02,0.021117332
7.91E+02,0.018692332
7.92E+02,0.021156503
7.92E+02,0.021460379
7.92E+02,0.023113629
7.93E+02,0.019737205
7.93E+02,0.023433369
7.93E+02,0.021705189
7.94E+02,0.021603067
7.94E+02,0.021908097
7.94E+02,0.02082974
7.94E+02,0.02208689
7.95E+02,0.018290561
7.95E+02,0.019242659
7.95E+02,0.021613563
7.96E+02,0.019733154
7.96E+02,0.022402701
7.96E+02,0.016625153
7.97E+02,0.022056183
7.97E+02,0.021410254
7.97E+02,0.022979945
7.98E+02,0.020950299
7.98E+02,0.022252334
7.98E+02,0.022591016
7.99E+02,0.024799947
7.99E+02,0.020332562
7.99E+02,0.019536454
8.00E+02,0.022553178
8.00E+02,0.017639558
8.00E+02,0.020957491
8.01E+02,0.020145087
8.01E+02,0.020927481
8.01E+02,0.021402076
8.02E+02,0.022053372
8.02E+02,0.027020764
8.02E+02,0.023491888
8.03E+02,0.023010021
8.03E+02,0.022196421
8.03E+02,0.019347663
8.03E+02,0.018083492
8.04E+02,0.026242329
8.04E+02,0.019831969
8.04E+02,0.028337729
8.05E+02,0.024875707
8.05E+02,0.023153931
8.05E+02,0.025467693
8.06E+02,0.023452867
8.06E+02,0.022453987
8.06E+02,0.022537908
8.07E+02,0.028066819
8.07E+02,0.020426933
8.07E+02,0.019435523
8.08E+02,0.027014575
8.08E+02,0.027125399
8.08E+02,0.023503796
8.09E+02,0.024533391
8.09E+02,0.024759666
8.09E+02,0.024530175
8.10E+02,0.025279059
8.10E+02,0.026635026
8.10E+02,0.027849572
8.10E+02,0.025899393
8.11E+02,0.024867302
8.11E+02,0.026240149
8.11E+02,0.021534079
8.12E+02,0.02500972
8.12E+02,0.021237559
8.12E+02,0.027199081
8.13E+02,0.023727034
8.13E+02,0.028924573
8.13E+02,0.024624606
8.14E+02,0.030378775
8.14E+02,0.024188619
8.14E+02,0.022793095
8.15E+02,0.027440046
8.15E+02,0.027715525
8.15E+02,0.027334433
8.16E+02,0.024538575
8.16E+02,0.030975584
8.16E+02,0.029400478
8.17E+02,0.02226995
8.17E+02,0.024251119
8.17E+02,0.026960402
8.17E+02,0.020257328
8.18E+02,0.025759267
8.18E+02,0.02429197
8.18E+02,0.030947461
8.19E+02,0.029289391
8.19E+02,0.03439961
8.19E+02,0.031312475
8.20E+02,0.030168332
8.20E+02,0.030456406
8.20E+02,0.028932412
8.21E+02,0.030503201
8.21E+02,0.024628113
8.21E+02,0.027678796
8.22E+02,0.033528353
8.22E+02,0.028672397
8.22E+02,0.034006473
8.23E+02,0.024091194
8.23E+02,0.031323087
8.23E+02,0.024886532
8.24E+02,0.03012212
8.24E+02,0.031792815
8.24E+02,0.034030319
8.24E+02,0.031302352
8.25E+02,0.03027089
8.25E+02,0.027672411
8.25E+02,0.033605864
8.26E+02,0.03199686
8.26E+02,0.031513357
8.26E+02,0.031060071
8.27E+02,0.028213944
8.27E+02,0.026549272
8.27E+02,0.030449855
8.28E+02,0.028394942
8.28E+02,0.026509612
8.28E+02,0.032464065
8.29E+02,0.028350204
8.29E+02,0.034597538
8.29E+02,0.0380264
8.30E+02,0.030628302
8.30E+02,0.030142839
8.30E+02,0.030898154
8.30E+02,0.034132576
8.31E+02,0.02801884
8.31E+02,0.029377856
8.31E+02,0.026538763
8.32E+02,0.035528394
8.32E+02,0.028675644
8.32E+02,0.029820732
8.33E+02,0.028860517
8.33E+02,0.034296523
8.33E+02,0.032056349
8.34E+02,0.033061618
8.34E+02,0.031476271
8.34E+02,0.032449377
8.35E+02,0.029506559
8.35E+02,0.03336355
8.35E+02,0.033048447
8.35E+02,0.039803936
8.36E+02,0.030217976
8.36E+02,0.03053105
8.36E+02,0.03289183
8.37E+02,0.039972564
8.37E+02,0.035382552
8.37E+02,0.033251631
8.38E+02,0.034045035
8.38E+02,0.033501778
8.38E+02,0.032021211
8.39E+02,0.038583047
8.39E+02,0.042630534
8.39E+02,0.036095321
8.40E+02,0.042974781
8.40E+02,0.033833663
8.40E+02,0.03536094
8.41E+02,0.032915132
8.41E+02,0.043148554
8.41E+02,0.038360995
8.41E+02,0.038985283
8.42E+02,0.040809535
8.42E+02,0.036633923
8.42E+02,0.040625482
8.43E+02,0.038148151
8.43E+02,0.039042665
8.43E+02,0.038221544
8.44E+02,0.040092143
8.44E+02,0.031921498
8.44E+02,0.033065288
8.45E+02,0.039116928
8.45E+02,0.035758244
8.45E+02,0.044124055
8.46E+02,0.034059619
8.46E+02,0.037202921
8.46E+02,0.038844846
8.46E+02,0.035189109
8.47E+02,0.038116173
8.47E+02,0.043092206
8.47E+02,0.039659342
8.48E+02,0.037978819
8.48E+02,0.040964678
8.48E+02,0.039850472
8.49E+02,0.03686718
8.49E+02,0.040889744
8.49E+02,0.033189935
8.50E+02,0.038567049
8.50E+02,0.037402633
8.50E+02,0.037508117
8.51E+02,0.037117017
8.51E+02,0.035392799
8.51E+02,0.029136265
8.51E+02,0.033263497
8.52E+02,0.039849502
8.52E+02,0.033812123
8.52E+02,0.042329226
8.53E+02,0.03760708
8.53E+02,0.036361293
8.53E+02,0.046346196
8.54E+02,0.039677284
8.54E+02,0.040104011
8.54E+02,0.035018072
8.55E+02,0.05019455
8.55E+02,0.04479642
8.55E+02,0.040166879
8.55E+02,0.049614408
8.56E+02,0.041901909
8.56E+02,0.049718713
8.56E+02,0.049907399
8.57E+02,0.047232729
8.57E+02,0.037673057
857.361,0.043012034
857.672,0.041986134
857.982,0.037517259
858.293,0.039102219
858.603,0.04660417
858.913,0.048826885
859.223,0.050188282
859.533,0.041507566
859.844,0.042285929
860.154,0.046334306
860.464,0.043206429
860.773,0.041587372
861.083,0.046310683
861.393,0.043120283
861.703,0.0460789
862.013,0.045064404
862.322,0.048638394
862.632,0.040201318
862.941,0.042846199
863.251,0.046420515
863.56,0.051018442
863.869,0.045887081
864.179,0.047964442
864.488,0.046261511
864.797,0.047094011
865.106,0.047570718
865.415,0.046139112
865.724,0.058272156
866.033,0.047239841
866.342,0.053613043
866.651,0.051552749
866.96,0.048193089
867.269,0.059882941
867.577,0.040334469
867.886,0.037197455
868.195,0.049355395
868.503,0.063976421
868.812,0.048467074
869.12,0.052045318
869.428,0.047232106
869.737,0.050158447
870.045,0.040123535
870.353,0.054772511
870.661,0.049211197
870.969,0.045651915
871.277,0.057074108
871.585,0.04365726
871.893,0.061866577
872.201,0.055454271
872.509,0.056768055
872.817,0.046234789
873.124,0.055859845
873.432,0.056891076
873.739,0.068027926
874.047,0.055929832
874.354,0.055061773
874.662,0.065259688
874.969,0.057788262
875.276,0.07105065
875.584,0.063546212
875.891,0.064561402
876.198,0.068616256
876.505,0.064032167
876.812,0.056751062
877.119,0.068143024
877.426,0.050479525
877.733,0.052679984
878.04,0.055334795
878.346,0.050212228
878.653,0.057604949
878.96,0.070133432
879.266,0.064209531
879.573,0.051403404
879.879,0.058529036
880.185,0.063304002
880.492,0.073471402
880.798,0.070575508
881.104,0.058235277
881.411,0.069794075
881.717,0.068100188
882.023,0.066874037
882.329,0.068176375
882.635,0.060537263
882.941,0.073343377
883.246,0.069482928
883.552,0.055159243
883.858,0.070734538
884.164,0.06498384
884.469,0.078929821
884.775,0.068260646
885.08,0.061036093
885.386,0.073405496
885.691,0.061647236
885.996,0.071805176
886.302,0.083393404
886.607,0.068285844
886.912,0.070851094
887.217,0.0651198
887.522,0.063981369
887.827,0.084524527
888.132,0.060277926
888.437,0.071165861
888.742,0.093314514
889.046,0.080133404
889.351,0.063472345
889.656,0.082151132
889.96,0.069255021
890.265,0.085188936
890.569,0.087371892
890.874,0.08572238
891.178,0.077855856
891.483,0.072258625
891.787,0.065227188
892.091,0.081736243
892.395,0.070193663
892.699,0.067931062
893.003,0.074725975
893.307,0.085945409
893.611,0.088492235
893.915,0.070185464
894.219,0.062029511
894.523,0.087079789
894.826,0.071643956
895.13,0.082599597
895.433,0.083370598
895.737,0.082561607
896.04,0.081243596
896.344,0.075544949
896.647,0.081245762
896.95,0.080921913
897.254,0.07368701
897.557,0.083894132
897.86,0.069937464
898.163,0.080108366
898.466,0.077770887
898.769,0.069339668
899.072,0.077644544
899.375,0.07990625
899.677,0.078025294
899.98,0.078669559
900.283,0.088154398
900.585,0.082157967
900.888,0.074101891
901.191,0.07331026
901.493,0.084891111
901.795,0.073154467
902.098,0.089992123
902.4,0.095418976
902.702,0.07846589
903.004,0.081328454
903.306,0.093655961
903.608,0.082304156
903.91,0.08726522
904.212,0.079648659
904.514,0.082525441
904.816,0.094976904
905.118,0.065847899
905.42,0.077326127
905.721,0.066823659
906.023,0.078317082
906.324,0.079135452
906.626,0.08755076
906.927,0.086753986
907.228,0.082640027
907.53,0.098865191
907.831,0.075087256
908.132,0.085370923
908.433,0.068522698
908.734,0.08782261
909.035,0.088377034
909.336,0.075291431
909.637,0.084151238
909.938,0.095406628
910.239,0.096449007
910.54,0.087712222
910.84,0.100819587
911.141,0.086728825
911.441,0.091927486
911.742,0.105288815
912.042,0.088070928
912.343,0.078268138
912.643,0.09051882
912.943,0.090925239
913.244,0.083601317
913.544,0.091823949
913.844,0.103813731
914.144,0.09461653
914.444,0.086614492
914.744,0.090794326
915.044,0.095120774
915.343,0.089422111
915.643,0.096354426
915.943,0.104036513
916.243,0.098988909
916.542,0.105356836
916.842,0.10021392
917.141,0.095020945
917.441,0.091040789
917.74,0.110046305
918.039,0.084234911
918.338,0.098093461
918.638,0.1114167
918.937,0.110078873
919.236,0.106638057
919.535,0.100492104
919.834,0.099635428
920.133,0.106616166
920.431,0.101079008
920.73,0.102430326
921.029,0.109501075
921.328,0.118140711
921.626,0.11474958
921.925,0.106974252
922.223,0.122205936
922.522,0.110646925
922.82,0.13716677
923.118,0.142073393
923.417,0.093702404
923.715,0.126260668
924.013,0.098328771
924.311,0.115118784
924.609,0.122860177
924.907,0.11043311
925.205,0.14027223
925.503,0.115206722
925.801,0.120917441
926.098,0.137049891
926.396,0.090480678
926.694,0.130899328
926.991,0.117731356
927.289,0.129288853
927.586,0.121930597
927.884,0.141259004
928.181,0.124612947
928.478,0.136436913
928.775,0.136708649
929.073,0.141943617
929.37,0.128351471
929.667,0.144311359
929.964,0.134053479
930.261,0.16294485
930.557,0.104250603
930.854,0.149450528
931.151,0.122459671
931.448,0.130066573
931.744,0.151642192
932.041,0.149241411
932.337,0.144045778
932.634,0.120488851
932.93,0.134908046
933.227,0.150758028
933.523,0.126537789
933.819,0.145269612
934.115,0.1472667
934.412,0.171164618
934.708,0.152308081
935.004,0.142345937
935.3,0.16697333
935.595,0.151678749
935.891,0.173577121
936.187,0.183272436
936.483,0.167639096
936.778,0.209407867
937.074,0.157681605
937.369,0.167994127
937.665,0.152085038
937.96,0.166352175
938.256,0.168513561
938.551,0.177762569
938.846,0.143165558
939.141,0.162609426
939.437,0.193554283
939.732,0.172241567
940.027,0.187498631
940.322,0.165394944
940.617,0.175752192
940.911,0.185280923
941.206,0.165350685
941.501,0.133287884
941.796,0.178141683
942.09,0.165005374
942.385,0.140222871
942.679,0.22240691
942.974,0.183567216
943.268,0.192502332
943.562,0.181314666
943.857,0.198438969
944.151,0.187540032
944.445,0.186315096
944.739,0.228548363
945.033,0.173356963
945.327,0.196417229
945.621,0.207608736
945.915,0.180880531
946.208,0.226901641
946.502,0.24002026
946.796,0.233585416
947.089,0.235132739
947.383,0.209582468
947.676,0.22552095
947.97,0.210192647
948.263,0.21600951
948.557,0.237994258
948.85,0.250052567
949.143,0.217624247
949.436,0.207074258
949.729,0.198094472
950.022,0.258955158
950.315,0.236760323
950.608,0.238849844
950.901,0.203788507
951.194,0.260190172
951.487,0.286333752
951.779,0.202216919
952.072,0.26198247
952.364,0.241611038
952.657,0.270241603
952.949,0.224412389
953.242,0.248262205
953.534,0.230398786
953.826,0.281983065
954.118,0.284551745
954.411,0.273397951
954.703,0.303657528
954.995,0.257054527
955.287,0.28988491
955.579,0.267138552
955.87,0.273300913
956.162,0.308776728
956.454,0.263548665
956.746,0.318253663
957.037,0.292606291
957.329,0.33065073
957.62,0.277781609
957.912,0.27846148
958.203,0.346947584
958.494,0.301093941
958.786,0.298061158
959.077,0.328511668
959.368,0.280776943
959.659,0.329856699
959.95,0.340844592
960.241,0.298433543
960.532,0.282343107
960.823,0.243376095
961.114,0.337628175
961.404,0.288695297
961.695,0.34940292
961.986,0.338531019
962.276,0.37226154
962.567,0.328601766
962.857,0.286456834
963.147,0.284626497
963.438,0.329958596
963.728,0.398855717
964.018,0.334797194
964.308,0.30925705
964.598,0.3429205
964.888,0.25136045
965.178,0.306068916
965.468,0.375697379
965.758,0.399008418
966.048,0.417959557
966.338,0.385945571
966.627,0.351218691
966.917,0.449836595
967.206,0.351933096
967.496,0.408281176
967.785,0.378367932
968.075,0.342695702
968.364,0.363532207
968.653,0.425512001
968.942,0.434428833
969.232,0.42132135
969.521,0.38298454
969.81,0.304846541
970.099,0.454948452
970.388,0.484760735
970.676,0.481412354
970.965,0.394619144
971.254,0.405969811
971.543,0.475416453
971.831,0.517351589
972.12,0.450549333
972.408,0.417232243
972.697,0.389357225
972.985,0.359836909
973.273,0.520984354
973.561,0.383746564
973.85,0.392603127
974.138,0.440329021
974.426,0.516415803
974.714,0.508259817
975.002,0.458842758
975.29,0.504282143
975.577,0.41542441
975.865,0.637352224
976.153,0.482760256
976.441,0.46434494
976.728,0.491855276
977.016,0.527177967
977.303,0.522701802
977.59,0.534738777
977.878,0.499445902
978.165,0.604774813
978.452,0.5227088
978.74,0.607690159
979.027,0.605978629
979.314,0.484324205
979.601,0.591000868
979.888,0.567056281
980.174,0.590981815
980.461,0.495977327
980.748,0.681335518
981.035,0.601207186
981.321,0.561254043
981.608,0.635433418
981.894,0.518441402
982.181,0.592501506
982.467,0.554683017
982.754,0.606889591
983.04,0.584451169
983.326,0.677110083
983.612,0.891388669
983.898,0.53161777
984.184,0.690328046
984.47,0.730312142
984.756,0.619417296
985.042,0.663604458
985.328,0.766206788
985.614,0.694564322
985.899,0.693492093
986.185,0.668750299
986.47,0.589550036
986.756,0.735951393
987.041,0.766042679
987.327,0.748465242
987.612,0.702539865
987.897,0.770812769
988.182,0.619284815
988.468,0.746144716
988.753,0.784459843
989.038,0.687660248
989.323,0.695945216
989.607,0.823385828
989.892,0.783691064
990.177,0.72726094
990.462,1.069733353
990.746,0.817381152
991.031,0.814639368
991.315,0.891491602
991.6,0.891982148
991.884,0.852336956
992.169,0.765463766
992.453,0.826891054
992.737,0.993672531
993.021,0.868635766
993.305,0.895147063
993.59,0.814294861
993.874,0.915439884
994.157,0.773058326
994.441,1.000266952
994.725,0.852472815
995.009,0.78862197
995.293,0.859057882
995.576,0.970638393
995.86,0.946730875
996.143,1.017592255
996.427,0.784308992
996.71,0.991849323
996.993,0.953925205
997.277,0.848137221
997.56,1.006263874
997.843,1.125269745
998.126,0.997514301
998.409,1.21159608
998.692,1.098406905
998.975,1.064174973
999.258,1.093534089
999.541,1.238376797
999.823,1.177970991
1000.106,0.946654816
1000.388,1.32464037
1000.671,1.305197442
1000.954,0.911021417
1001.236,1.113362056
1001.518,1.251308561
1001.801,1.204119982
1002.083,1.193108335
1002.365,1.142405068
1002.647,1.263488292
1002.929,1.267413628
1003.211,1.271139334
1003.493,1.105085277
1003.775,1.352203868
1004.057,1.40007651
1004.338,1.238875294
1004.62,1.411677583
1004.902,1.038196672
1005.183,1.338616147
1005.465,1.356329179
1005.746,1.413236771
1006.028,1.381756053
1006.309,1.160662232
1006.59,1.316006061
1006.871,1.394176178
1007.153,1.598818252
1007.434,1.384846397
1007.715,1.401200728
1007.996,1.484868757
1008.277,1.507272229
1008.557,1.369639939
1008.838,1.820147524
1009.119,1.755148549
1009.4,1.719687089
1009.68,1.746131658
1009.961,1.667019563
1010.241,1.634592193
1010.522,1.69407144
1010.802,1.655634979
1011.082,1.848935391
1011.362,1.428228306
1011.643,1.858096514
1011.923,2.030919825
1012.203,1.827023437
1012.483,1.999020039
1012.763,1.83446013
1013.042,2.146933187
1013.322,1.928898235
1013.602,1.919552331
1013.882,1.998471076
1014.161,1.892274949
1014.441,1.75260387
1014.72,1.823112381
1015,2.065396825
1015.279,1.847486413
1015.558,1.786297705
1015.838,1.910264925
1016.117,2.17014714
1016.396,1.946910959
1016.675,1.756528638
1016.954,1.873276728
1017.233,2.132338996
1017.512,2.098560724
1017.791,2.182438967
1018.07,1.905714584
1018.348,1.963737773
1018.627,2.724608004
1018.905,2.263623685
1019.184,2.439562063
1019.462,2.305063286
1019.741,2.692175263
1020.019,1.950094385
1020.297,1.994555601
1020.576,2.557699767
1020.854,2.537278153
1021.132,2.117144551
1021.41,2.11608326
1021.688,2.115022409
