Wavelength, W/m2 
346.47, 1.2040 
346.85, 0.2241 
347.23, 0.1176 
347.611, 0.1410 
347.991, 0.0910 
348.371, 0.0773 
348.751, 0.0523 
349.131, 0.0814 
349.511, 0.0682 
349.891, 0.0601 
350.27, 0.0636 
350.65, 0.0597 
351.03, 0.0445 
351.41, 0.0584 
351.79, 0.0532 
352.169, 0.0516 
352.549, 0.0659 
352.928, 0.0514 
353.308, 0.0559 
353.687, 0.0653 
354.067, 0.0534 
354.446, 0.0565 
354.826, 0.0669 
355.205, 0.0582 
355.584, 0.0563 
355.964, 0.0644 
356.343, 0.0630 
356.722, 0.0591 
357.101, 0.0483 
357.48, 0.0522 
357.859, 0.0493 
358.238, 0.0496 
358.617, 0.0561 
358.996, 0.0523 
359.375, 0.0474 
359.754, 0.0511 
360.133, 0.0527 
360.512, 0.0523 
360.891, 0.0375 
361.269, 0.0515 
361.648, 0.0500 
362.027, 0.0531 
362.405, 0.0438 
362.784, 0.0480 
363.162, 0.0495 
363.541, 0.0440 
363.919, 0.0464 
364.298, 0.0483 
364.676, 0.0418 
365.054, 0.0465 
365.433, 0.0371 
365.811, 0.0394 
366.189, 0.0438 
366.567, 0.0439 
366.945, 0.0384 
367.323, 0.0420 
367.701, 0.0469 
368.079, 0.0420 
368.457, 0.0407 
368.835, 0.0383 
369.213, 0.0263 
369.591, 0.0355 
369.969, 0.0396 
370.346, 0.0385 
370.724, 0.0448 
371.102, 0.0424 
371.479, 0.0422 
371.857, 0.0416 
372.235, 0.0372 
372.612, 0.0383 
372.99, 0.0410 
373.367, 0.0368 
373.744, 0.0335 
374.122, 0.0298 
374.499, 0.0355 
374.876, 0.0361 
375.254, 0.0374 
375.631, 0.0379 
376.008, 0.0391 
376.385, 0.0283 
376.762, 0.0338 
377.139, 0.0289 
377.516, 0.0293 
377.893, 0.0381 
378.27, 0.0392 
378.647, 0.0364 
379.024, 0.0324 
379.4, 0.0351 
379.777, 0.0287 
380.154, 0.0415 
380.53, 0.0342 
380.907, 0.0316 
381.284, 0.0300 
381.66, 0.0332 
382.037, 0.0262 
382.413, 0.0293 
382.79, 0.0298 
383.166, 0.0286 
383.542, 0.0317 
383.919, 0.0286 
384.295, 0.0304 
384.671, 0.0313 
385.047, 0.0300 
385.423, 0.0294 
385.799, 0.0242 
386.176, 0.0290 
386.552, 0.0270 
386.928, 0.0286 
387.303, 0.0310 
387.679, 0.0269 
388.055, 0.0294 
388.431, 0.0301 
388.807, 0.0296 
389.183, 0.0302 
389.558, 0.0261 
389.934, 0.0333 
390.309, 0.0273 
390.685, 0.0239 
391.061, 0.0264 
391.436, 0.0274 
391.811, 0.0275 
392.187, 0.0248 
392.562, 0.0273 
392.938, 0.0287 
393.313, 0.0245 
393.688, 0.0237 
394.063, 0.0257 
394.438, 0.0229 
394.814, 0.0259 
395.189, 0.0258 
395.564, 0.0251 
395.939, 0.0214 
396.314, 0.0213 
396.689, 0.0259 
397.063, 0.0213 
397.438, 0.0211 
397.813, 0.0232 
398.188, 0.0245 
398.563, 0.0222 
398.937, 0.0204 
399.312, 0.0215 
399.686, 0.0218 
400.061, 0.0201 
400.435, 0.0207 
400.81, 0.0207 
401.184, 0.0219 
401.559, 0.0204 
401.933, 0.0232 
402.307, 0.0229 
402.682, 0.0215 
403.056, 0.0183 
403.43, 0.0221 
403.804, 0.0279 
404.178, 0.0291 
404.552, 0.0236 
404.926, 0.0204 
405.3, 0.0203 
405.674, 0.0186 
406.048, 0.0257 
406.422, 0.0190 
406.796, 0.0222 
407.169, 0.0223 
407.543, 0.0214 
407.917, 0.0205 
408.291, 0.0214 
408.664, 0.0204 
409.038, 0.0197 
409.411, 0.0241 
409.785, 0.0241 
410.158, 0.0229 
410.531, 0.0203 
410.905, 0.0203 
411.278, 0.0208 
411.651, 0.0214 
412.025, 0.0212 
412.398, 0.0213 
412.771, 0.0209 
413.144, 0.0231 
413.517, 0.0202 
413.89, 0.0385 
414.263, 0.0203 
414.636, 0.0223 
415.009, 0.0223 
415.382, 0.0222 
415.755, 0.0208 
416.127, 0.0217 
416.5, 0.0209 
416.873, 0.0238 
417.245, 0.0249 
417.618, 0.0243 
417.991, 0.0246 
418.363, 0.0273 
418.736, 0.0260 
419.108, 0.0248 
419.48, 0.0271 
419.853, 0.0269 
420.225, 0.0301 
420.597, 0.0270 
420.97, 0.0284 
421.342, 0.0299 
421.714, 0.0291 
422.086, 0.0326 
422.458, 0.0316 
422.83, 0.0340 
423.202, 0.0350 
423.574, 0.0353 
423.946, 0.0341 
424.318, 0.0342 
424.69, 0.0340 
425.061, 0.0398 
425.433, 0.0408 
425.805, 0.0446 
426.177, 0.0470 
426.548, 0.0490 
426.92, 0.0485 
427.291, 0.0485 
427.663, 0.0523 
428.034, 0.0562 
428.406, 0.0588 
428.777, 0.0588 
429.148, 0.0660 
429.519, 0.0710 
429.891, 0.0745 
430.262, 0.0725 
430.633, 0.0748 
431.004, 0.0790 
431.375, 0.0845 
431.746, 0.0874 
432.117, 0.0912 
432.488, 0.1044 
432.859, 0.1040 
433.23, 0.1101 
433.601, 0.1137 
433.971, 0.1280 
434.342, 0.1299 
434.713, 0.1509 
435.083, 0.1608 
435.454, 0.1708 
435.825, 0.1625 
436.195, 0.1665 
436.566, 0.1698 
436.936, 0.1822 
437.306, 0.1950 
437.677, 0.2003 
438.047, 0.2152 
438.417, 0.2221 
438.788, 0.2348 
439.158, 0.2420 
439.528, 0.2624 
439.898, 0.2700 
440.268, 0.2899 
440.638, 0.3006 
441.008, 0.3211 
441.378, 0.3376 
441.748, 0.3399 
442.118, 0.3648 
442.487, 0.3919 
442.857, 0.3981 
443.227, 0.4152 
443.597, 0.4423 
443.966, 0.4640 
444.336, 0.4821 
444.705, 0.5027 
445.075, 0.5360 
445.444, 0.5577 
445.814, 0.5806 
446.183, 0.6173 
446.552, 0.6340 
446.922, 0.6801 
447.291, 0.6943 
447.66, 0.7313 
448.029, 0.7521 
448.398, 0.8026 
448.768, 0.8445 
449.137, 0.8761 
449.506, 0.9205 
449.875, 0.9564 
450.243, 0.9792 
450.612, 1.0367 
450.981, 1.0725 
451.35, 1.1360 
451.719, 1.1796 
452.087, 1.2085 
452.456, 1.2478 
452.825, 1.3087 
453.193, 1.3275 
453.562, 1.3674 
453.93, 1.4255 
454.299, 1.4626 
454.667, 1.4766 
455.035, 1.5096 
455.404, 1.5286 
455.772, 1.5286 
456.14, 1.5691 
456.508, 1.5813 
456.877, 1.5797 
457.245, 1.5754 
457.613, 1.5844 
457.981, 1.5963 
458.349, 1.6075 
458.717, 1.5885 
459.085, 1.5966 
459.452, 1.5943 
459.82, 1.5768 
460.188, 1.5596 
460.556, 1.5750 
460.923, 1.5489 
461.291, 1.5245 
461.659, 1.5077 
462.026, 1.4981 
462.394, 1.4547 
462.761, 1.4381 
463.128, 1.4232 
463.496, 1.3903 
463.863, 1.3464 
464.23, 1.3321 
464.598, 1.2870 
464.965, 1.2375 
465.332, 1.2151 
465.699, 1.1450 
466.066, 1.1213 
466.433, 1.0873 
466.8, 1.0298 
467.167, 0.9998 
467.534, 0.9826 
467.901, 0.9309 
468.268, 0.8945 
468.635, 0.8789 
469.001, 0.8451 
469.368, 0.8080 
469.735, 0.7779 
470.101, 0.7604 
470.468, 0.7417 
470.834, 0.7209 
471.201, 0.6950 
471.567, 0.6787 
471.934, 0.6625 
472.3, 0.6457 
472.666, 0.6270 
473.032, 0.6113 
473.399, 0.5964 
473.765, 0.5736 
474.131, 0.5563 
474.497, 0.5380 
474.863, 0.5278 
475.229, 0.4991 
475.595, 0.4971 
475.961, 0.4830 
476.327, 0.4599 
476.693, 0.4533 
477.058, 0.4326 
477.424, 0.4165 
477.79, 0.4060 
478.156, 0.3950 
478.521, 0.3735 
478.887, 0.3662 
479.252, 0.3486 
479.618, 0.3335 
479.983, 0.3224 
480.348, 0.3093 
480.714, 0.2984 
481.079, 0.2879 
481.444, 0.2756 
481.81, 0.2663 
482.175, 0.2537 
482.54, 0.2456 
482.905, 0.2341 
483.27, 0.2220 
483.635, 0.2151 
484, 0.2051 
484.365, 0.2009 
484.73, 0.1933 
485.095, 0.1868 
485.459, 0.1790 
485.824, 0.1715 
486.189, 0.1629 
486.553, 0.1597 
486.918, 0.1524 
487.283, 0.1512 
487.647, 0.1453 
488.012, 0.1409 
488.376, 0.1335 
488.74, 0.1299 
489.105, 0.1241 
489.469, 0.1223 
489.833, 0.1203 
490.198, 0.1125 
490.562, 0.1114 
490.926, 0.1088 
491.29, 0.1022 
491.654, 0.0990 
492.018, 0.0978 
492.382, 0.0929 
492.746, 0.0905 
493.11, 0.0880 
493.474, 0.0853 
493.837, 0.0799 
494.201, 0.0778 
494.565, 0.0756 
494.928, 0.0735 
495.292, 0.0711 
495.656, 0.0703 
496.019, 0.0682 
496.383, 0.0649 
496.746, 0.0605 
497.109, 0.0604 
497.473, 0.0566 
497.836, 0.0569 
498.199, 0.0548 
498.563, 0.0506 
498.926, 0.0495 
499.289, 0.0481 
499.652, 0.0469 
500.015, 0.0449 
500.378, 0.0422 
500.741, 0.0422 
501.104, 0.0416 
501.467, 0.0382 
501.829, 0.0386 
502.192, 0.0379 
502.555, 0.0345 
502.918, 0.0346 
503.28, 0.0343 
503.643, 0.0331 
504.005, 0.0325 
504.368, 0.0303 
504.73, 0.0285 
505.093, 0.0289 
505.455, 0.0272 
505.817, 0.0273 
506.18, 0.0265 
506.542, 0.0271 
506.904, 0.0255 
507.266, 0.0263 
507.628, 0.0244 
507.991, 0.0248 
508.353, 0.0235 
508.715, 0.0220 
509.076, 0.0220 
509.438, 0.0221 
509.8, 0.0207 
510.162, 0.0197 
510.524, 0.0196 
510.885, 0.0201 
511.247, 0.0188 
511.609, 0.0179 
511.97, 0.0185 
512.332, 0.0190 
512.693, 0.0183 
513.055, 0.0181 
513.416, 0.0171 
513.778, 0.0167 
514.139, 0.0166 
514.5, 0.0160 
514.861, 0.0147 
515.223, 0.0155 
515.584, 0.0142 
515.945, 0.0160 
516.306, 0.0150 
516.667, 0.0149 
517.028, 0.0144 
517.389, 0.0153 
517.75, 0.0145 
518.11, 0.0137 
518.471, 0.0143 
518.832, 0.0134 
519.193, 0.0129 
519.553, 0.0132 
519.914, 0.0124 
520.274, 0.0128 
520.635, 0.0123 
520.995, 0.0132 
521.356, 0.0125 
521.716, 0.0119 
522.076, 0.0130 
522.437, 0.0123 
522.797, 0.0126 
523.157, 0.0123 
523.517, 0.0110 
523.877, 0.0109 
524.238, 0.0114 
524.598, 0.0121 
524.958, 0.0108 
525.317, 0.0114 
525.677, 0.0103 
526.037, 0.0113 
526.397, 0.0113 
526.757, 0.0109 
527.116, 0.0102 
527.476, 0.0108 
527.836, 0.0109 
528.195, 0.0096 
528.555, 0.0093 
528.914, 0.0103 
529.274, 0.0113 
529.633, 0.0109 
529.993, 0.0102 
530.352, 0.0102 
530.711, 0.0102 
531.07, 0.0096 
531.429, 0.0100 
531.789, 0.0098 
532.148, 0.0096 
532.507, 0.0097 
532.866, 0.0093 
533.225, 0.0090 
533.584, 0.0101 
533.942, 0.0101 
534.301, 0.0089 
534.66, 0.0098 
535.019, 0.0097 
535.377, 0.0088 
535.736, 0.0098 
536.095, 0.0099 
536.453, 0.0089 
536.812, 0.0087 
537.17, 0.0091 
537.528, 0.0105 
537.887, 0.0093 
538.245, 0.0091 
538.603, 0.0106 
538.962, 0.0104 
539.32, 0.0115 
539.678, 0.0130 
540.036, 0.0129 
540.394, 0.0153 
540.752, 0.0175 
541.11, 0.0180 
541.468, 0.0184 
541.826, 0.0163 
542.184, 0.0158 
542.541, 0.0162 
542.899, 0.0156 
543.257, 0.0145 
543.614, 0.0153 
543.972, 0.0145 
544.33, 0.0153 
544.687, 0.0187 
545.045, 0.0250 
545.402, 0.0266 
545.759, 0.0249 
546.117, 0.0197 
546.474, 0.0161 
546.831, 0.0151 
547.188, 0.0138 
547.546, 0.0122 
547.903, 0.0125 
548.26, 0.0119 
548.617, 0.0102 
548.974, 0.0113 
549.331, 0.0111 
549.687, 0.0107 
550.044, 0.0102 
550.401, 0.0092 
550.758, 0.0083 
551.114, 0.0084 
551.471, 0.0091 
551.828, 0.0095 
552.184, 0.0090 
552.541, 0.0086 
552.897, 0.0092 
553.254, 0.0082 
553.61, 0.0083 
553.966, 0.0084 
554.323, 0.0075 
554.679, 0.0077 
555.035, 0.0091 
555.391, 0.0075 
555.747, 0.0080 
556.103, 0.0077 
556.459, 0.0070 
556.815, 0.0075 
557.171, 0.0069 
557.527, 0.0067 
557.883, 0.0066 
558.239, 0.0067 
558.594, 0.0068 
558.95, 0.0072 
559.306, 0.0070 
559.661, 0.0084 
560.017, 0.0068 
560.372, 0.0075 
560.728, 0.0071 
561.083, 0.0076 
561.438, 0.0072 
561.794, 0.0081 
562.149, 0.0063 
562.504, 0.0078 
562.859, 0.0071 
563.215, 0.0085 
563.57, 0.0072 
563.925, 0.0071 
564.28, 0.0069 
564.635, 0.0084 
564.99, 0.0071 
565.344, 0.0068 
565.699, 0.0076 
566.054, 0.0071 
566.409, 0.0065 
566.763, 0.0077 
567.118, 0.0074 
567.473, 0.0077 
567.827, 0.0066 
568.182, 0.0073 
568.536, 0.0065 
568.891, 0.0080 
569.245, 0.0065 
569.599, 0.0070 
569.953, 0.0071 
570.308, 0.0079 
570.662, 0.0071 
571.016, 0.0079 
571.37, 0.0070 
571.724, 0.0071 
572.078, 0.0056 
572.432, 0.0069 
572.786, 0.0064 
573.14, 0.0074 
573.494, 0.0072 
573.847, 0.0067 
574.201, 0.0067 
574.555, 0.0079 
574.908, 0.0082 
575.262, 0.0074 
575.615, 0.0086 
575.969, 0.0089 
576.322, 0.0089 
576.676, 0.0079 
577.029, 0.0083 
577.382, 0.0067 
577.736, 0.0073 
578.089, 0.0085 
578.442, 0.0088 
578.795, 0.0075 
579.148, 0.0085 
579.501, 0.0081 
579.854, 0.0088 
580.207, 0.0093 
580.56, 0.0074 
580.913, 0.0087 
581.265, 0.0080 
581.618, 0.0083 
581.971, 0.0088 
582.324, 0.0089 
582.676, 0.0086 
583.029, 0.0093 
583.381, 0.0085 
583.734, 0.0094 
584.086, 0.0092 
584.438, 0.0092 
584.791, 0.0082 
585.143, 0.0083 
585.495, 0.0083 
585.847, 0.0078 
586.2, 0.0097 
586.552, 0.0093 
586.904, 0.0092 
587.256, 0.0083 
587.608, 0.0088 
587.959, 0.0079 
588.311, 0.0079 
588.663, 0.0094 
589.015, 0.0089 
589.367, 0.0084 
589.718, 0.0080 
590.07, 0.0083 
590.421, 0.0081 
590.773, 0.0091 
591.124, 0.0089 
591.476, 0.0085 
591.827, 0.0078 
592.179, 0.0088 
592.53, 0.0082 
592.881, 0.0091 
593.232, 0.0084 
593.584, 0.0080 
593.935, 0.0078 
594.286, 0.0079 
594.637, 0.0080 
594.988, 0.0073 
595.339, 0.0075 
595.689, 0.0077 
596.04, 0.0086 
596.391, 0.0077 
596.742, 0.0070 
597.092, 0.0076 
597.443, 0.0083 
597.794, 0.0080 
598.144, 0.0088 
598.495, 0.0080 
598.845, 0.0087 
599.196, 0.0079 
599.546, 0.0073 
599.896, 0.0078 
600.247, 0.0078 
600.597, 0.0083 
600.947, 0.0067 
601.297, 0.0075 
601.647, 0.0071 
601.997, 0.0093 
602.347, 0.0069 
602.697, 0.0090 
603.047, 0.0084 
603.397, 0.0078 
603.747, 0.0079 
604.096, 0.0086 
604.446, 0.0079 
604.796, 0.0070 
605.145, 0.0083 
605.495, 0.0081 
605.844, 0.0076 
606.194, 0.0072 
606.543, 0.0086 
606.893, 0.0072 
607.242, 0.0083 
607.591, 0.0082 
607.94, 0.0088 
608.29, 0.0082 
608.639, 0.0094 
608.988, 0.0093 
609.337, 0.0119 
609.686, 0.0149 
610.035, 0.0203 
610.384, 0.0235 
610.733, 0.0239 
611.081, 0.0232 
611.43, 0.0188 
611.779, 0.0178 
612.127, 0.0165 
612.476, 0.0147 
612.825, 0.0134 
613.173, 0.0137 
613.522, 0.0120 
613.87, 0.0114 
614.218, 0.0113 
614.567, 0.0109 
614.915, 0.0089 
615.263, 0.0099 
615.611, 0.0090 
615.96, 0.0081 
616.308, 0.0079 
616.656, 0.0080 
617.004, 0.0087 
617.352, 0.0083 
617.7, 0.0084 
618.047, 0.0079 
618.395, 0.0078 
618.743, 0.0074 
619.091, 0.0081 
619.438, 0.0075 
619.786, 0.0076 
620.134, 0.0084 
620.481, 0.0089 
620.829, 0.0074 
621.176, 0.0075 
621.523, 0.0092 
621.871, 0.0092 
622.218, 0.0078 
622.565, 0.0085 
622.912, 0.0076 
623.259, 0.0089 
623.607, 0.0081 
623.954, 0.0079 
624.301, 0.0084 
624.648, 0.0101 
624.994, 0.0080 
625.341, 0.0083 
625.688, 0.0090 
626.035, 0.0085 
626.382, 0.0085 
626.728, 0.0089 
627.075, 0.0086 
627.421, 0.0084 
627.768, 0.0090 
628.114, 0.0077 
628.461, 0.0089 
628.807, 0.0079 
629.154, 0.0082 
629.5, 0.0096 
629.846, 0.0094 
630.192, 0.0094 
630.538, 0.0103 
630.884, 0.0086 
631.231, 0.0090 
631.577, 0.0087 
631.922, 0.0073 
632.268, 0.0082 
632.614, 0.0074 
632.96, 0.0076 
633.306, 0.0067 
633.651, 0.0083 
633.997, 0.0085 
634.343, 0.0076 
634.688, 0.0079 
635.034, 0.0087 
635.379, 0.0075 
635.725, 0.0070 
636.07, 0.0076 
636.415, 0.0073 
636.761, 0.0075 
637.106, 0.0079 
637.451, 0.0073 
637.796, 0.0070 
638.141, 0.0071 
638.486, 0.0079 
638.831, 0.0070 
639.176, 0.0071 
639.521, 0.0075 
639.866, 0.0085 
640.211, 0.0077 
640.555, 0.0073 
640.9, 0.0072 
641.245, 0.0069 
641.589, 0.0071 
641.934, 0.0084 
642.278, 0.0071 
642.623, 0.0077 
642.967, 0.0063 
643.312, 0.0075 
643.656, 0.0070 
644, 0.0088 
644.344, 0.0070 
644.689, 0.0077 
645.033, 0.0072 
645.377, 0.0074 
645.721, 0.0087 
646.065, 0.0079 
646.409, 0.0080 
646.753, 0.0086 
647.096, 0.0083 
647.44, 0.0081 
647.784, 0.0075 
648.128, 0.0086 
648.471, 0.0082 
648.815, 0.0071 
649.158, 0.0081 
649.502, 0.0083 
649.845, 0.0082 
650.189, 0.0086 
650.532, 0.0093 
650.875, 0.0082 
651.218, 0.0067 
651.562, 0.0078 
651.905, 0.0089 
652.248, 0.0083 
652.591, 0.0079 
652.934, 0.0092 
653.277, 0.0078 
653.62, 0.0085 
653.963, 0.0073 
654.305, 0.0089 
654.648, 0.0089 
654.991, 0.0081 
655.334, 0.0074 
655.676, 0.0097 
656.019, 0.0089 
656.361, 0.0072 
656.704, 0.0075 
657.046, 0.0080 
657.389, 0.0070 
657.731, 0.0084 
658.073, 0.0087 
658.415, 0.0073 
658.757, 0.0099 
659.1, 0.0085 
659.442, 0.0085 
659.784, 0.0072 
660.126, 0.0087 
660.468, 0.0094 
660.809, 0.0071 
661.151, 0.0099 
661.493, 0.0089 
661.835, 0.0078 
662.177, 0.0085 
662.518, 0.0070 
662.86, 0.0080 
663.201, 0.0060 
663.543, 0.0078 
663.884, 0.0073 
664.226, 0.0069 
664.567, 0.0078 
664.908, 0.0088 
665.249, 0.0100 
665.591, 0.0078 
665.932, 0.0078 
666.273, 0.0084 
666.614, 0.0076 
666.955, 0.0069 
667.296, 0.0070 
667.637, 0.0083 
667.978, 0.0077 
668.318, 0.0075 
668.659, 0.0080 
669, 0.0091 
669.341, 0.0088 
669.681, 0.0073 
670.022, 0.0099 
670.362, 0.0089 
670.703, 0.0081 
671.043, 0.0089 
671.383, 0.0088 
671.724, 0.0077 
672.064, 0.0092 
672.404, 0.0079 
672.744, 0.0079 
673.085, 0.0072 
673.425, 0.0084 
673.765, 0.0072 
674.105, 0.0086 
674.444, 0.0085 
674.784, 0.0095 
675.124, 0.0096 
675.464, 0.0095 
675.804, 0.0077 
676.143, 0.0091 
676.483, 0.0092 
676.823, 0.0096 
677.162, 0.0082 
677.501, 0.0094 
677.841, 0.0079 
678.18, 0.0083 
678.52, 0.0088 
678.859, 0.0075 
679.198, 0.0080 
679.537, 0.0095 
679.876, 0.0085 
680.215, 0.0088 
680.555, 0.0084 
680.894, 0.0087 
681.232, 0.0089 
681.571, 0.0093 
681.91, 0.0100 
682.249, 0.0082 
682.588, 0.0091 
682.926, 0.0073 
683.265, 0.0080 
683.604, 0.0088 
683.942, 0.0095 
684.281, 0.0105 
684.619, 0.0091 
684.957, 0.0097 
685.296, 0.0087 
685.634, 0.0097 
685.972, 0.0108 
686.31, 0.0093 
686.649, 0.0104 
686.987, 0.0097 
687.325, 0.0099 
687.663, 0.0083 
688.001, 0.0091 
688.338, 0.0079 
688.676, 0.0094 
689.014, 0.0101 
689.352, 0.0108 
689.69, 0.0085 
690.027, 0.0098 
690.365, 0.0084 
690.702, 0.0094 
691.04, 0.0095 
691.377, 0.0093 
691.715, 0.0086 
692.052, 0.0092 
692.389, 0.0094 
692.726, 0.0111 
693.064, 0.0094 
693.401, 0.0116 
693.738, 0.0086 
694.075, 0.0086 
694.412, 0.0104 
694.749, 0.0079 
695.086, 0.0100 
695.423, 0.0105 
695.759, 0.0093 
696.096, 0.0083 
696.433, 0.0100 
696.769, 0.0093 
697.106, 0.0091 
697.443, 0.0093 
697.779, 0.0106 
698.116, 0.0097 
698.452, 0.0098 
698.788, 0.0086 
699.125, 0.0099 
699.461, 0.0099 
699.797, 0.0094 
700.133, 0.0109 
700.469, 0.0094 
700.805, 0.0103 
701.141, 0.0099 
701.477, 0.0099 
701.813, 0.0113 
702.149, 0.0107 
702.485, 0.0119 
702.82, 0.0121 
703.156, 0.0104 
703.492, 0.0114 
703.827, 0.0105 
704.163, 0.0110 
704.498, 0.0110 
704.834, 0.0105 
705.169, 0.0112 
705.505, 0.0126 
705.84, 0.0103 
706.175, 0.0116 
706.51, 0.0126 
706.845, 0.0110 
707.18, 0.0115 
707.515, 0.0109 
707.85, 0.0130 
708.185, 0.0124 
708.52, 0.0121 
708.855, 0.0116 
709.19, 0.0099 
709.525, 0.0109 
709.859, 0.0128 
710.194, 0.0116 
710.529, 0.0106 
710.863, 0.0102 
711.198, 0.0127 
711.532, 0.0111 
711.866, 0.0130 
712.201, 0.0120 
712.535, 0.0126 
712.869, 0.0115 
713.203, 0.0121 
713.537, 0.0095 
713.872, 0.0116 
714.206, 0.0114 
714.54, 0.0096 
714.873, 0.0120 
715.207, 0.0102 
715.541, 0.0106 
715.875, 0.0105 
716.209, 0.0122 
716.542, 0.0124 
716.876, 0.0115 
717.21, 0.0129 
717.543, 0.0124 
717.877, 0.0108 
718.21, 0.0102 
718.543, 0.0124 
718.877, 0.0127 
719.21, 0.0106 
719.543, 0.0127 
719.876, 0.0121 
720.209, 0.0116 
720.542, 0.0133 
720.875, 0.0105 
721.208, 0.0131 
721.541, 0.0110 
721.874, 0.0115 
722.207, 0.0108 
722.54, 0.0127 
722.872, 0.0115 
723.205, 0.0110 
723.538, 0.0113 
723.87, 0.0106 
724.203, 0.0125 
724.535, 0.0127 
724.868, 0.0120 
725.2, 0.0137 
725.532, 0.0142 
725.865, 0.0106 
726.197, 0.0151 
726.529, 0.0123 
726.861, 0.0110 
727.193, 0.0130 
727.525, 0.0128 
727.857, 0.0141 
728.189, 0.0133 
728.521, 0.0150 
728.853, 0.0145 
729.184, 0.0132 
729.516, 0.0149 
729.848, 0.0132 
730.179, 0.0135 
730.511, 0.0135 
730.842, 0.0124 
731.174, 0.0115 
731.505, 0.0117 
731.836, 0.0109 
732.168, 0.0118 
732.499, 0.0144 
732.83, 0.0131 
733.161, 0.0114 
733.492, 0.0136 
733.823, 0.0139 
734.154, 0.0125 
734.485, 0.0123 
734.816, 0.0140 
735.147, 0.0089 
735.478, 0.0122 
735.808, 0.0111 
736.139, 0.0153 
736.47, 0.0117 
736.8, 0.0122 
737.131, 0.0129 
737.461, 0.0125 
737.792, 0.0143 
738.122, 0.0123 
738.452, 0.0126 
738.782, 0.0138 
739.113, 0.0122 
739.443, 0.0135 
739.773, 0.0143 
740.103, 0.0121 
740.433, 0.0124 
740.763, 0.0148 
741.093, 0.0133 
741.423, 0.0144 
741.752, 0.0148 
742.082, 0.0135 
742.412, 0.0137 
742.742, 0.0129 
743.071, 0.0167 
743.401, 0.0123 
743.73, 0.0135 
744.06, 0.0165 
744.389, 0.0157 
744.718, 0.0144 
745.048, 0.0131 
745.377, 0.0130 
745.706, 0.0156 
746.035, 0.0166 
746.364, 0.0130 
746.693, 0.0173 
747.022, 0.0158 
747.351, 0.0156 
747.68, 0.0148 
748.009, 0.0130 
748.338, 0.0166 
748.666, 0.0132 
748.995, 0.0157 
749.323, 0.0172 
749.652, 0.0159 
749.981, 0.0096 
750.309, 0.0140 
750.637, 0.0140 
750.966, 0.0155 
751.294, 0.0155 
751.622, 0.0164 
751.95, 0.0136 
752.279, 0.0146 
752.607, 0.0171 
752.935, 0.0169 
753.263, 0.0172 
753.591, 0.0141 
753.919, 0.0144 
754.246, 0.0122 
754.574, 0.0097 
754.902, 0.0148 
755.23, 0.0157 
755.557, 0.0130 
755.885, 0.0149 
756.212, 0.0162 
756.54, 0.0129 
756.867, 0.0160 
757.195, 0.0150 
757.522, 0.0147 
757.849, 0.0150 
758.176, 0.0167 
758.503, 0.0146 
758.831, 0.0149 
759.158, 0.0172 
759.485, 0.0127 
759.812, 0.0144 
760.138, 0.0150 
760.465, 0.0141 
760.792, 0.0185 
761.119, 0.0157 
761.446, 0.0178 
761.772, 0.0134 
762.099, 0.0175 
762.425, 0.0153 
762.752, 0.0172 
763.078, 0.0133 
763.405, 0.0181 
763.731, 0.0155 
764.057, 0.0137 
764.383, 0.0181 
764.71, 0.0147 
765.036, 0.0165 
765.362, 0.0137 
765.688, 0.0181 
766.014, 0.0178 
766.34, 0.0152 
766.665, 0.0169 
766.991, 0.0137 
767.317, 0.0158 
767.643, 0.0152 
767.968, 0.0174 
768.294, 0.0174 
768.619, 0.0184 
768.945, 0.0145 
769.27, 0.0178 
769.596, 0.0145 
769.921, 0.0183 
770.246, 0.0169 
770.572, 0.0165 
770.897, 0.0193 
771.222, 0.0174 
771.547, 0.0176 
771.872, 0.0175 
772.197, 0.0199 
772.522, 0.0151 
772.847, 0.0147 
773.171, 0.0159 
773.496, 0.0207 
773.821, 0.0165 
774.146, 0.0193 
774.47, 0.0208 
774.795, 0.0170 
775.119, 0.0197 
775.444, 0.0200 
775.768, 0.0192 
776.092, 0.0169 
776.417, 0.0182 
776.741, 0.0211 
777.065, 0.0201 
777.389, 0.0184 
777.713, 0.0212 
778.037, 0.0189 
778.361, 0.0188 
778.685, 0.0190 
779.009, 0.0194 
779.333, 0.0201 
779.657, 0.0193 
779.98, 0.0195 
780.304, 0.0183 
780.627, 0.0197 
780.951, 0.0234 
781.274, 0.0182 
781.598, 0.0182 
781.921, 0.0184 
782.245, 0.0225 
782.568, 0.0203 
782.891, 0.0182 
783.214, 0.0217 
783.537, 0.0191 
783.861, 0.0208 
784.184, 0.0249 
784.506, 0.0186 
784.829, 0.0156 
785.152, 0.0220 
785.475, 0.0209 
785.798, 0.0182 
786.12, 0.0217 
786.443, 0.0223 
786.766, 0.0200 
787.088, 0.0243 
787.411, 0.0193 
787.733, 0.0213 
788.056, 0.0226 
788.378, 0.0200 
788.7, 0.0214 
789.022, 0.0215 
789.345, 0.0221 
789.667, 0.0186 
789.989, 0.0217 
790.311, 0.0200 
790.633, 0.0219 
790.955, 0.0214 
791.276, 0.0213 
791.598, 0.0251 
791.92, 0.0228 
792.242, 0.0203 
792.563, 0.0219 
792.885, 0.0241 
793.206, 0.0212 
793.528, 0.0216 
793.849, 0.0232 
794.171, 0.0213 
794.492, 0.0169 
794.813, 0.0212 
795.134, 0.0232 
795.456, 0.0200 
795.777, 0.0210 
796.098, 0.0177 
796.419, 0.0162 
796.74, 0.0285 
797.061, 0.0185 
797.381, 0.0206 
797.702, 0.0235 
798.023, 0.0206 
798.344, 0.0237 
798.664, 0.0219 
798.985, 0.0189 
799.305, 0.0232 
799.626, 0.0188 
799.946, 0.0218 
800.267, 0.0243 
800.587, 0.0262 
800.907, 0.0224 
801.227, 0.0230 
801.548, 0.0180 
801.868, 0.0276 
802.188, 0.0195 
802.508, 0.0190 
802.828, 0.0208 
803.147, 0.0178 
803.467, 0.0253 
803.787, 0.0249 
804.107, 0.0215 
804.426, 0.0269 
804.746, 0.0198 
805.066, 0.0218 
805.385, 0.0247 
805.705, 0.0221 
806.024, 0.0207 
806.343, 0.0214 
806.663, 0.0272 
806.982, 0.0237 
807.301, 0.0230 
807.62, 0.0281 
807.939, 0.0248 
808.258, 0.0263 
808.577, 0.0239 
808.896, 0.0229 
809.215, 0.0228 
809.534, 0.0288 
809.852, 0.0241 
810.171, 0.0258 
810.49, 0.0277 
810.808, 0.0235 
811.127, 0.0237 
811.445, 0.0220 
811.764, 0.0265 
812.082, 0.0232 
812.401, 0.0241 
812.719, 0.0272 
813.037, 0.0209 
813.355, 0.0245 
813.673, 0.0246 
813.991, 0.0231 
814.309, 0.0227 
814.627, 0.0256 
814.945, 0.0274 
815.263, 0.0265 
815.581, 0.0261 
815.899, 0.0243 
816.216, 0.0269 
816.534, 0.0251 
816.851, 0.0288 
817.169, 0.0273 
817.486, 0.0274 
817.804, 0.0242 
818.121, 0.0287 
818.438, 0.0239 
818.756, 0.0290 
819.073, 0.0291 
819.39, 0.0317 
819.707, 0.0306 
820.024, 0.0217 
820.341, 0.0275 
820.658, 0.0316 
820.975, 0.0279 
821.292, 0.0306 
821.608, 0.0303 
821.925, 0.0318 
822.242, 0.0303 
822.558, 0.0249 
822.875, 0.0218 
823.191, 0.0294 
823.508, 0.0281 
823.824, 0.0343 
824.141, 0.0308 
824.457, 0.0308 
824.773, 0.0309 
825.089, 0.0322 
825.405, 0.0230 
825.721, 0.0252 
826.037, 0.0353 
826.353, 0.0374 
826.669, 0.0310 
826.985, 0.0284 
827.301, 0.0337 
827.617, 0.0296 
827.932, 0.0348 
828.248, 0.0265 
828.563, 0.0345 
828.879, 0.0263 
829.194, 0.0344 
829.51, 0.0298 
829.825, 0.0347 
830.14, 0.0330 
830.456, 0.0344 
830.771, 0.0310 
831.086, 0.0313 
831.401, 0.0320 
831.716, 0.0313 
832.031, 0.0304 
832.346, 0.0337 
832.661, 0.0353 
832.976, 0.0322 
833.29, 0.0345 
833.605, 0.0320 
833.92, 0.0337 
834.234, 0.0329 
834.549, 0.0317 
834.863, 0.0347 
835.178, 0.0287 
835.492, 0.0359 
835.806, 0.0347 
836.121, 0.0355 
836.435, 0.0401 
836.749, 0.0371 
837.063, 0.0341 
837.377, 0.0308 
837.691, 0.0336 
838.005, 0.0324 
838.319, 0.0350 
838.633, 0.0285 
838.946, 0.0420 
839.26, 0.0394 
839.574, 0.0430 
839.887, 0.0329 
840.201, 0.0324 
840.514, 0.0332 
840.828, 0.0305 
841.141, 0.0320 
841.455, 0.0345 
841.768, 0.0413 
842.081, 0.0357 
842.394, 0.0344 
842.707, 0.0382 
843.02, 0.0439 
843.333, 0.0402 
843.646, 0.0355 
843.959, 0.0432 
844.272, 0.0363 
844.585, 0.0389 
844.898, 0.0410 
845.21, 0.0362 
845.523, 0.0361 
845.835, 0.0302 
846.148, 0.0452 
846.46, 0.0357 
846.773, 0.0415 
847.085, 0.0408 
847.397, 0.0369 
847.71, 0.0380 
848.022, 0.0374 
848.334, 0.0383 
848.646, 0.0354 
848.958, 0.0360 
849.27, 0.0392 
849.582, 0.0470 
849.894, 0.0338 
850.205, 0.0460 
850.517, 0.0401 
850.829, 0.0376 
851.141, 0.0359 
851.452, 0.0440 
851.764, 0.0412 
852.075, 0.0439 
852.386, 0.0405 
852.698, 0.0309 
853.009, 0.0367 
853.32, 0.0464 
853.632, 0.0384 
853.943, 0.0473 
854.254, 0.0470 
854.565, 0.0477 
854.876, 0.0451 
855.187, 0.0461 
855.497, 0.0497 
855.808, 0.0451 
856.119, 0.0438 
856.43, 0.0420 
856.74, 0.0521 
857.051, 0.0461 
857.361, 0.0416 
857.672, 0.0374 
857.982, 0.0419 
858.293, 0.0464 
858.603, 0.0388 
858.913, 0.0459 
859.223, 0.0464 
859.533, 0.0475 
859.844, 0.0501 
860.154, 0.0515 
860.464, 0.0439 
860.773, 0.0510 
861.083, 0.0509 
861.393, 0.0426 
861.703, 0.0568 
862.013, 0.0421 
862.322, 0.0465 
862.632, 0.0452 
862.941, 0.0466 
863.251, 0.0546 
863.56, 0.0367 
863.869, 0.0547 
864.179, 0.0490 
864.488, 0.0504 
864.797, 0.0510 
865.106, 0.0470 
865.415, 0.0529 
865.724, 0.0554 
866.033, 0.0512 
866.342, 0.0352 
866.651, 0.0444 
866.96, 0.0424 
867.269, 0.0547 
867.577, 0.0546 
867.886, 0.0479 
868.195, 0.0421 
868.503, 0.0600 
868.812, 0.0516 
869.12, 0.0457 
869.428, 0.0476 
869.737, 0.0516 
870.045, 0.0535 
870.353, 0.0521 
870.661, 0.0569 
870.969, 0.0558 
871.277, 0.0596 
871.585, 0.0529 
871.893, 0.0496 
872.201, 0.0548 
872.509, 0.0558 
872.817, 0.0463 
873.124, 0.0552 
873.432, 0.0479 
873.739, 0.0579 
874.047, 0.0578 
874.354, 0.0562 
874.662, 0.0639 
874.969, 0.0505 
875.276, 0.0603 
875.584, 0.0692 
875.891, 0.0500 
876.198, 0.0661 
876.505, 0.0599 
876.812, 0.0606 
877.119, 0.0717 
877.426, 0.0582 
877.733, 0.0558 
878.04, 0.0597 
878.346, 0.0605 
878.653, 0.0648 
878.96, 0.0476 
879.266, 0.0631 
879.573, 0.0535 
879.879, 0.0675 
880.185, 0.0472 
880.492, 0.0548 
880.798, 0.0637 
881.104, 0.0649 
881.411, 0.0641 
881.717, 0.0611 
882.023, 0.0586 
882.329, 0.0695 
882.635, 0.0704 
882.941, 0.0657 
883.246, 0.0722 
883.552, 0.0774 
883.858, 0.0490 
884.164, 0.0743 
884.469, 0.0702 
884.775, 0.0666 
885.08, 0.0522 
885.386, 0.0771 
885.691, 0.0779 
885.996, 0.0778 
886.302, 0.0640 
886.607, 0.0688 
886.912, 0.0595 
887.217, 0.0638 
887.522, 0.0590 
887.827, 0.0597 
888.132, 0.0631 
888.437, 0.0675 
888.742, 0.0831 
889.046, 0.0741 
889.351, 0.0842 
889.656, 0.0728 
889.96, 0.0679 
890.265, 0.0853 
890.569, 0.0693 
890.874, 0.0853 
891.178, 0.0659 
891.483, 0.0743 
891.787, 0.0774 
892.091, 0.0770 
892.395, 0.0809 
892.699, 0.0782 
893.003, 0.0879 
893.307, 0.0788 
893.611, 0.0789 
893.915, 0.0674 
894.219, 0.0836 
894.523, 0.0798 
894.826, 0.0663 
895.13, 0.0596 
895.433, 0.0766 
895.737, 0.0723 
896.04, 0.0625 
896.344, 0.0776 
896.647, 0.0764 
896.95, 0.0621 
897.254, 0.0798 
897.557, 0.0709 
897.86, 0.0776 
898.163, 0.0560 
898.466, 0.0819 
898.769, 0.0800 
899.072, 0.0717 
899.375, 0.0841 
899.677, 0.0644 
899.98, 0.0721 
900.283, 0.0714 
900.585, 0.0858 
900.888, 0.0788 
901.191, 0.0605 
901.493, 0.0938 
901.795, 0.0800 
902.098, 0.0792 
902.4, 0.0716 
902.702, 0.0791 
903.004, 0.0772 
903.306, 0.0838 
903.608, 0.0729 
903.91, 0.0842 
904.212, 0.0829 
904.514, 0.0842 
904.816, 0.0834 
905.118, 0.0852 
905.42, 0.0839 
905.721, 0.0809 
906.023, 0.0666 
906.324, 0.0803 
906.626, 0.0871 
906.927, 0.0863 
907.228, 0.0882 
907.53, 0.0858 
907.831, 0.0829 
908.132, 0.0899 
908.433, 0.0820 
908.734, 0.0835 
909.035, 0.0834 
909.336, 0.0731 
909.637, 0.0950 
909.938, 0.0972 
910.239, 0.0719 
910.54, 0.0878 
910.84, 0.0807 
911.141, 0.0839 
911.441, 0.0792 
911.742, 0.0842 
912.042, 0.0888 
912.343, 0.0890 
912.643, 0.0930 
912.943, 0.0958 
913.244, 0.0759 
913.544, 0.0853 
913.844, 0.1221 
914.144, 0.0856 
914.444, 0.0861 
914.744, 0.0909 
915.044, 0.1014 
915.343, 0.1145 
915.643, 0.1072 
915.943, 0.0953 
916.243, 0.1061 
916.542, 0.0939 
916.842, 0.1139 
917.141, 0.1062 
917.441, 0.1003 
917.74, 0.0957 
918.039, 0.0923 
918.338, 0.1016 
918.638, 0.0874 
918.937, 0.1008 
919.236, 0.1027 
919.535, 0.0863 
919.834, 0.0881 
920.133, 0.1033 
920.431, 0.1096 
920.73, 0.1054 
921.029, 0.1082 
921.328, 0.1126 
921.626, 0.0970 
921.925, 0.0977 
922.223, 0.0998 
922.522, 0.1093 
922.82, 0.0953 
923.118, 0.1162 
923.417, 0.1215 
923.715, 0.1098 
924.013, 0.1335 
924.311, 0.1206 
924.609, 0.1238 
924.907, 0.0974 
925.205, 0.1154 
925.503, 0.1059 
925.801, 0.1266 
926.098, 0.1540 
926.396, 0.1172 
926.694, 0.1124 
926.991, 0.1236 
927.289, 0.1270 
927.586, 0.1030 
927.884, 0.1264 
928.181, 0.1559 
928.478, 0.1273 
928.775, 0.1633 
929.073, 0.1361 
929.37, 0.1164 
929.667, 0.1340 
929.964, 0.1228 
930.261, 0.1355 
930.557, 0.1430 
930.854, 0.1442 
931.151, 0.1363 
931.448, 0.1312 
931.744, 0.1695 
932.041, 0.1522 
932.337, 0.1423 
932.634, 0.1407 
932.93, 0.1418 
933.227, 0.1568 
933.523, 0.1561 
933.819, 0.1534 
934.115, 0.1614 
934.412, 0.1604 
934.708, 0.1646 
935.004, 0.1446 
935.3, 0.1354 
935.595, 0.1436 
935.891, 0.1665 
936.187, 0.1573 
936.483, 0.1489 
936.778, 0.1724 
937.074, 0.1740 
937.369, 0.1476 
937.665, 0.1807 
937.96, 0.1556 
938.256, 0.1255 
938.551, 0.1735 
938.846, 0.1535 
939.141, 0.1651 
939.437, 0.1572 
939.732, 0.1748 
940.027, 0.1912 
940.322, 0.2019 
940.617, 0.1736 
940.911, 0.1938 
941.206, 0.1871 
941.501, 0.1746 
941.796, 0.1954 
942.09, 0.1677 
942.385, 0.2111 
942.679, 0.2077 
942.974, 0.1888 
943.268, 0.1750 
943.562, 0.2096 
943.857, 0.2025 
944.151, 0.1449 
944.445, 0.1984 
944.739, 0.1866 
945.033, 0.2109 
945.327, 0.1792 
945.621, 0.2228 
945.915, 0.1839 
946.208, 0.2147 
946.502, 0.2528 
946.796, 0.2324 
947.089, 0.2043 
947.383, 0.2042 
947.676, 0.2186 
947.97, 0.1902 
948.263, 0.2265 
948.557, 0.2060 
948.85, 0.2341 
949.143, 0.2298 
949.436, 0.2553 
949.729, 0.1999 
950.022, 0.2471 
950.315, 0.2693 
950.608, 0.2376 
950.901, 0.2182 
951.194, 0.2148 
951.487, 0.1992 
951.779, 0.2153 
952.072, 0.2025 
952.364, 0.2028 
952.657, 0.2475 
952.949, 0.2480 
953.242, 0.2804 
953.534, 0.2696 
953.826, 0.2226 
954.118, 0.2918 
954.411, 0.2911 
954.703, 0.2602 
954.995, 0.2698 
955.287, 0.2455 
955.579, 0.2909 
955.87, 0.3100 
956.162, 0.2981 
956.454, 0.3047 
956.746, 0.2569 
957.037, 0.2515 
957.329, 0.2911 
957.62, 0.2590 
957.912, 0.3252 
958.203, 0.2986 
958.494, 0.3250 
958.786, 0.3282 
959.077, 0.2889 
959.368, 0.3235 
959.659, 0.2997 
959.95, 0.3228 
960.241, 0.3133 
960.532, 0.3475 
960.823, 0.2881 
961.114, 0.3551 
961.404, 0.3730 
961.695, 0.3780 
961.986, 0.3346 
962.276, 0.3925 
962.567, 0.3357 
962.857, 0.3517 
963.147, 0.3595 
963.438, 0.2622 
963.728, 0.3329 
964.018, 0.3837 
964.308, 0.3283 
964.598, 0.3856 
964.888, 0.3938 
965.178, 0.3567 
965.468, 0.3978 
965.758, 0.2755 
966.048, 0.3693 
966.338, 0.3889 
966.627, 0.3865 
966.917, 0.3549 
967.206, 0.3372 
967.496, 0.3807 
967.785, 0.3274 
968.075, 0.4417 
968.364, 0.4371 
968.653, 0.3996 
968.942, 0.4190 
969.232, 0.4513 
969.521, 0.4160 
969.81, 0.4397 
970.099, 0.3890 
970.388, 0.4405 
970.676, 0.3914 
970.965, 0.3809 
971.254, 0.4381 
971.543, 0.4090 
971.831, 0.4034 
972.12, 0.4600 
972.408, 0.4624 
972.697, 0.4916 
972.985, 0.4298 
973.273, 0.4972 
973.561, 0.4671 
973.85, 0.4395 
974.138, 0.4781 
974.426, 0.4857 
974.714, 0.5120 
975.002, 0.4085 
975.29, 0.4728 
975.577, 0.5295 
975.865, 0.5592 
976.153, 0.5197 
976.441, 0.5083 
976.728, 0.4588 
977.016, 0.4429 
977.303, 0.5130 
977.59, 0.5180 
977.878, 0.5943 
978.165, 0.4649 
978.452, 0.5234 
978.74, 0.5293 
979.027, 0.5238 
979.314, 0.6450 
979.601, 0.5440 
979.888, 0.5196 
980.174, 0.6440 
980.461, 0.6101 
980.748, 0.6400 
981.035, 0.6789 
981.321, 0.6476 
981.608, 0.6283 
981.894, 0.6061 
982.181, 0.5693 
982.467, 0.4948 
982.754, 0.5507 
983.04, 0.5523 
983.326, 0.4621 
983.612, 0.7584 
983.898, 0.6293 
984.184, 0.6145 
984.47, 0.6925 
984.756, 0.5986 
985.042, 0.6339 
985.328, 0.5515 
985.614, 0.5442 
985.899, 0.5909 
986.185, 0.6787 
986.47, 0.6452 
986.756, 0.5393 
987.041, 0.6834 
987.327, 0.6372 
987.612, 0.6752 
987.897, 0.6624 
988.182, 0.7544 
988.468, 0.7374 
988.753, 0.6345 
989.038, 0.6984 
989.323, 0.8955 
989.607, 0.6689 
989.892, 0.7033 
990.177, 0.7333 
990.462, 0.6783 
990.746, 0.6675 
991.031, 0.8156 
991.315, 0.7918 
991.6, 0.8608 
991.884, 1.0214 
992.169, 0.9303 
992.453, 0.8772 
992.737, 0.9060 
993.021, 0.9253 
993.305, 0.7509 
993.59, 0.6220 
993.874, 0.9338 
994.157, 0.7916 
994.441, 0.9195 
994.725, 1.0062 
995.009, 0.8134 
995.293, 0.8602 
995.576, 0.9233 
995.86, 1.0211 
996.143, 1.0435 
996.427, 0.8549 
996.71, 0.7974 
996.993, 0.8848 
997.277, 1.0110 
997.56, 0.9615 
997.843, 1.1731 
998.126, 0.8843 
998.409, 0.9205 
998.692, 1.0790 
998.975, 1.1424 
999.258, 1.0807 
999.541, 1.0467 
999.823, 1.1793 
1000.106, 0.9700 
1000.388, 1.2004 
1000.671, 1.0219 
1000.954, 1.4658 
1001.236, 0.9548 
1001.518, 1.0984 
1001.801, 1.2676 
1002.083, 1.2102 
1002.365, 1.2855 
1002.647, 1.2410 
1002.929, 1.2446 
1003.211, 1.1990 
1003.493, 1.0237 
1003.775, 1.0369 
1004.057, 1.3006 
1004.338, 1.0528 
1004.62, 1.3791 
1004.902, 1.1780 
1005.183, 1.3229 
1005.465, 1.2260 
1005.746, 1.0444 
1006.028, 1.3923 
1006.309, 1.4049 
1006.59, 1.4272 
1006.871, 1.2845 
1007.153, 1.3204 
1007.434, 1.3866 
1007.715, 1.2880 
1007.996, 1.4188 
1008.277, 1.4992 
1008.557, 1.5313 
1008.838, 1.5478 
1009.119, 1.7674 
1009.4, 1.5645 
1009.68, 1.3147 
1009.961, 1.8078 
1010.241, 1.7772 
1010.522, 1.7621 
1010.802, 1.7021 
1011.082, 1.7835 
1011.362, 1.7270 
1011.643, 1.5951 
1011.923, 1.7533 
1012.203, 1.4198 
1012.483, 1.7413 
1012.763, 1.6939 
1013.042, 2.3279 
1013.322, 2.4249 
1013.602, 1.9463 
1013.882, 1.8775 
1014.161, 1.5838 
1014.441, 1.8418 
1014.72, 1.6497 
1015, 1.9419 
1015.279, 1.9011 
1015.558, 1.8528 
1015.838, 1.6033 
1016.117, 1.7232 
1016.396, 1.8422 
1016.675, 1.9630 
1016.954, 1.9452 
1017.233, 1.7591 
1017.512, 2.3544 
1017.791, 2.2559 
1018.07, 2.3121 
1018.348, 1.8938 
1018.627, 2.5956 
1018.905, 2.3545 
1019.184, 2.5598 
1019.462, 2.2930 
1019.741, 2.2194 
1020.019, 2.1151 
1020.297, 2.2352 
1020.576, 2.2610 
1020.854, 2.3789 
1021.132, 2.2242 
1021.41, 2.2231 
1021.688, 2.2219 
