Wavelength, W/m2 
339.619, -   
340, -   
340.381, -   
340.762, -   
341.143, -   
341.524, -   
341.904, -   
342.285, -   
342.666, -   
343.046, -   
343.427, -   
343.807, -   
344.188, -   
344.568, -   
344.949, -   
345.329, -   
345.71, -   
346.09, -   
346.47, 1.5593 
346.85, 0.1304 
347.23, 0.1234 
347.611, 0.0806 
347.991, 0.1117 
348.371, 0.0770 
348.751, 0.0740 
349.131, 0.0434 
349.511, 0.0513 
349.891, 0.0528 
350.27, 0.0544 
350.65, 0.0334 
351.03, 0.0537 
351.41, 0.0459 
351.79, 0.0458 
352.169, 0.0451 
352.549, 0.0485 
352.928, 0.0442 
353.308, 0.0510 
353.687, 0.0502 
354.067, 0.0386 
354.446, 0.0535 
354.826, 0.0446 
355.205, 0.0387 
355.584, 0.0433 
355.964, 0.0377 
356.343, 0.0522 
356.722, 0.0519 
357.101, 0.0540 
357.48, 0.0389 
357.859, 0.0574 
358.238, 0.0452 
358.617, 0.0599 
358.996, 0.0525 
359.375, 0.0393 
359.754, 0.0429 
360.133, 0.0478 
360.512, 0.0399 
360.891, 0.0374 
361.269, 0.0371 
361.648, 0.0357 
362.027, 0.0484 
362.405, 0.0335 
362.784, 0.0458 
363.162, 0.0358 
363.541, 0.0410 
363.919, 0.0338 
364.298, 0.0407 
364.676, 0.0389 
365.054, 0.0459 
365.433, 0.0365 
365.811, 0.0340 
366.189, 0.0339 
366.567, 0.0389 
366.945, 0.0410 
367.323, 0.0409 
367.701, 0.0394 
368.079, 0.0270 
368.457, 0.0396 
368.835, 0.0285 
369.213, 0.0347 
369.591, 0.0387 
369.969, 0.0276 
370.346, 0.0341 
370.724, 0.0322 
371.102, 0.0366 
371.479, 0.0290 
371.857, 0.0400 
372.235, 0.0391 
372.612, 0.0358 
372.99, 0.0355 
373.367, 0.0350 
373.744, 0.0359 
374.122, 0.0310 
374.499, 0.0297 
374.876, 0.0327 
375.254, 0.0310 
375.631, 0.0245 
376.008, 0.0354 
376.385, 0.0209 
376.762, 0.0297 
377.139, 0.0280 
377.516, 0.0270 
377.893, 0.0263 
378.27, 0.0296 
378.647, 0.0313 
379.024, 0.0305 
379.4, 0.0231 
379.777, 0.0278 
380.154, 0.0279 
380.53, 0.0287 
380.907, 0.0218 
381.284, 0.0288 
381.66, 0.0278 
382.037, 0.0288 
382.413, 0.0267 
382.79, 0.0211 
383.166, 0.0320 
383.542, 0.0268 
383.919, 0.0263 
384.295, 0.0244 
384.671, 0.0239 
385.047, 0.0252 
385.423, 0.0211 
385.799, 0.0194 
386.176, 0.0249 
386.552, 0.0203 
386.928, 0.0204 
387.303, 0.0256 
387.679, 0.0247 
388.055, 0.0200 
388.431, 0.0231 
388.807, 0.0209 
389.183, 0.0188 
389.558, 0.0201 
389.934, 0.0192 
390.309, 0.0216 
390.685, 0.0186 
391.061, 0.0219 
391.436, 0.0172 
391.811, 0.0192 
392.187, 0.0195 
392.562, 0.0160 
392.938, 0.0209 
393.313, 0.0216 
393.688, 0.0149 
394.063, 0.0167 
394.438, 0.0211 
394.814, 0.0211 
395.189, 0.0171 
395.564, 0.0184 
395.939, 0.0181 
396.314, 0.0181 
396.689, 0.0184 
397.063, 0.0187 
397.438, 0.0197 
397.813, 0.0172 
398.188, 0.0200 
398.563, 0.0151 
398.937, 0.0150 
399.312, 0.0116 
399.686, 0.0147 
400.061, 0.0198 
400.435, 0.0193 
400.81, 0.0173 
401.184, 0.0176 
401.559, 0.0195 
401.933, 0.0162 
402.307, 0.0154 
402.682, 0.0188 
403.056, 0.0158 
403.43, 0.0163 
403.804, 0.0201 
404.178, 0.0203 
404.552, 0.0198 
404.926, 0.0163 
405.3, 0.0138 
405.674, 0.0176 
406.048, 0.0147 
406.422, 0.0189 
406.796, 0.0171 
407.169, 0.0171 
407.543, 0.0174 
407.917, 0.0165 
408.291, 0.0166 
408.664, 0.0157 
409.038, 0.0148 
409.411, 0.0141 
409.785, 0.0122 
410.158, 0.0167 
410.531, 0.0128 
410.905, 0.0167 
411.278, 0.0159 
411.651, 0.0165 
412.025, 0.0134 
412.398, 0.0136 
412.771, 0.0167 
413.144, 0.0132 
413.517, 0.0166 
413.89, 0.0152 
414.263, 0.0143 
414.636, 0.0099 
415.009, 0.0141 
415.382, 0.0144 
415.755, 0.0122 
416.127, 0.0139 
416.5, 0.0142 
416.873, 0.0153 
417.245, 0.0128 
417.618, 0.0120 
417.991, 0.0126 
418.363, 0.0131 
418.736, 0.0119 
419.108, 0.0117 
419.48, 0.0128 
419.853, 0.0144 
420.225, 0.0126 
420.597, 0.0131 
420.97, 0.0144 
421.342, 0.0125 
421.714, 0.0149 
422.086, 0.0121 
422.458, 0.0146 
422.83, 0.0143 
423.202, 0.0130 
423.574, 0.0138 
423.946, 0.0116 
424.318, 0.0133 
424.69, 0.0148 
425.061, 0.0125 
425.433, 0.0133 
425.805, 0.0098 
426.177, 0.0117 
426.548, 0.0130 
426.92, 0.0119 
427.291, 0.0124 
427.663, 0.0136 
428.034, 0.0117 
428.406, 0.0138 
428.777, 0.0119 
429.148, 0.0123 
429.519, 0.0119 
429.891, 0.0119 
430.262, 0.0103 
430.633, 0.0106 
431.004, 0.0134 
431.375, 0.0124 
431.746, 0.0097 
432.117, 0.0110 
432.488, 0.0144 
432.859, 0.0140 
433.23, 0.0144 
433.601, 0.0129 
433.971, 0.0131 
434.342, 0.0128 
434.713, 0.0169 
435.083, 0.0222 
435.454, 0.0284 
435.825, 0.0235 
436.195, 0.0167 
436.566, 0.0115 
436.936, 0.0103 
437.306, 0.0109 
437.677, 0.0107 
438.047, 0.0088 
438.417, 0.0114 
438.788, 0.0123 
439.158, 0.0132 
439.528, 0.0107 
439.898, 0.0121 
440.268, 0.0109 
440.638, 0.0119 
441.008, 0.0125 
441.378, 0.0115 
441.748, 0.0112 
442.118, 0.0138 
442.487, 0.0122 
442.857, 0.0131 
443.227, 0.0096 
443.597, 0.0114 
443.966, 0.0126 
444.336, 0.0121 
444.705, 0.0112 
445.075, 0.0114 
445.444, 0.0103 
445.814, 0.0091 
446.183, 0.0119 
446.552, 0.0104 
446.922, 0.0117 
447.291, 0.0124 
447.66, 0.0122 
448.029, 0.0096 
448.398, 0.0122 
448.768, 0.0121 
449.137, 0.0110 
449.506, 0.0131 
449.875, 0.0135 
450.243, 0.0103 
450.612, 0.0101 
450.981, 0.0112 
451.35, 0.0101 
451.719, 0.0137 
452.087, 0.0116 
452.456, 0.0146 
452.825, 0.0118 
453.193, 0.0113 
453.562, 0.0124 
453.93, 0.0126 
454.299, 0.0111 
454.667, 0.0093 
455.035, 0.0117 
455.404, 0.0097 
455.772, 0.0093 
456.14, 0.0119 
456.508, 0.0108 
456.877, 0.0110 
457.245, 0.0109 
457.613, 0.0115 
457.981, 0.0093 
458.349, 0.0100 
458.717, 0.0105 
459.085, 0.0120 
459.452, 0.0092 
459.82, 0.0117 
460.188, 0.0117 
460.556, 0.0100 
460.923, 0.0107 
461.291, 0.0103 
461.659, 0.0091 
462.026, 0.0088 
462.394, 0.0107 
462.761, 0.0105 
463.128, 0.0117 
463.496, 0.0091 
463.863, 0.0103 
464.23, 0.0119 
464.598, 0.0107 
464.965, 0.0109 
465.332, 0.0095 
465.699, 0.0095 
466.066, 0.0090 
466.433, 0.0091 
466.8, 0.0085 
467.167, 0.0090 
467.534, 0.0087 
467.901, 0.0107 
468.268, 0.0093 
468.635, 0.0098 
469.001, 0.0114 
469.368, 0.0100 
469.735, 0.0105 
470.101, 0.0106 
470.468, 0.0082 
470.834, 0.0102 
471.201, 0.0111 
471.567, 0.0099 
471.934, 0.0093 
472.3, 0.0098 
472.666, 0.0103 
473.032, 0.0098 
473.399, 0.0099 
473.765, 0.0081 
474.131, 0.0107 
474.497, 0.0083 
474.863, 0.0092 
475.229, 0.0085 
475.595, 0.0097 
475.961, 0.0073 
476.327, 0.0091 
476.693, 0.0095 
477.058, 0.0088 
477.424, 0.0089 
477.79, 0.0093 
478.156, 0.0100 
478.521, 0.0094 
478.887, 0.0085 
479.252, 0.0092 
479.618, 0.0090 
479.983, 0.0094 
480.348, 0.0088 
480.714, 0.0085 
481.079, 0.0089 
481.444, 0.0094 
481.81, 0.0091 
482.175, 0.0102 
482.54, 0.0103 
482.905, 0.0104 
483.27, 0.0087 
483.635, 0.0100 
484, 0.0087 
484.365, 0.0087 
484.73, 0.0095 
485.095, 0.0097 
485.459, 0.0090 
485.824, 0.0111 
486.189, 0.0107 
486.553, 0.0105 
486.918, 0.0101 
487.283, 0.0095 
487.647, 0.0105 
488.012, 0.0109 
488.376, 0.0114 
488.74, 0.0121 
489.105, 0.0107 
489.469, 0.0115 
489.833, 0.0111 
490.198, 0.0127 
490.562, 0.0114 
490.926, 0.0126 
491.29, 0.0122 
491.654, 0.0122 
492.018, 0.0129 
492.382, 0.0121 
492.746, 0.0123 
493.11, 0.0120 
493.474, 0.0133 
493.837, 0.0146 
494.201, 0.0161 
494.565, 0.0148 
494.928, 0.0173 
495.292, 0.0146 
495.656, 0.0161 
496.019, 0.0161 
496.383, 0.0185 
496.746, 0.0172 
497.109, 0.0178 
497.473, 0.0184 
497.836, 0.0192 
498.199, 0.0193 
498.563, 0.0207 
498.926, 0.0212 
499.289, 0.0215 
499.652, 0.0229 
500.015, 0.0229 
500.378, 0.0234 
500.741, 0.0237 
501.104, 0.0262 
501.467, 0.0259 
501.829, 0.0279 
502.192, 0.0283 
502.555, 0.0291 
502.918, 0.0297 
503.28, 0.0312 
503.643, 0.0324 
504.005, 0.0317 
504.368, 0.0334 
504.73, 0.0346 
505.093, 0.0342 
505.455, 0.0361 
505.817, 0.0377 
506.18, 0.0395 
506.542, 0.0402 
506.904, 0.0436 
507.266, 0.0406 
507.628, 0.0426 
507.991, 0.0449 
508.353, 0.0447 
508.715, 0.0460 
509.076, 0.0476 
509.438, 0.0482 
509.8, 0.0495 
510.162, 0.0507 
510.524, 0.0529 
510.885, 0.0524 
511.247, 0.0531 
511.609, 0.0546 
511.97, 0.0548 
512.332, 0.0562 
512.693, 0.0589 
513.055, 0.0570 
513.416, 0.0594 
513.778, 0.0578 
514.139, 0.0595 
514.5, 0.0609 
514.861, 0.0598 
515.223, 0.0626 
515.584, 0.0624 
515.945, 0.0609 
516.306, 0.0607 
516.667, 0.0617 
517.028, 0.0610 
517.389, 0.0612 
517.75, 0.0609 
518.11, 0.0604 
518.471, 0.0600 
518.832, 0.0589 
519.193, 0.0593 
519.553, 0.0595 
519.914, 0.0590 
520.274, 0.0579 
520.635, 0.0564 
520.995, 0.0555 
521.356, 0.0535 
521.716, 0.0556 
522.076, 0.0563 
522.437, 0.0524 
522.797, 0.0514 
523.157, 0.0518 
523.517, 0.0509 
523.877, 0.0511 
524.238, 0.0488 
524.598, 0.0485 
524.958, 0.0482 
525.317, 0.0453 
525.677, 0.0437 
526.037, 0.0450 
526.397, 0.0445 
526.757, 0.0440 
527.116, 0.0425 
527.476, 0.0415 
527.836, 0.0410 
528.195, 0.0409 
528.555, 0.0404 
528.914, 0.0390 
529.274, 0.0387 
529.633, 0.0374 
529.993, 0.0372 
530.352, 0.0359 
530.711, 0.0377 
531.07, 0.0364 
531.429, 0.0359 
531.789, 0.0357 
532.148, 0.0342 
532.507, 0.0323 
532.866, 0.0345 
533.225, 0.0337 
533.584, 0.0318 
533.942, 0.0315 
534.301, 0.0317 
534.66, 0.0313 
535.019, 0.0297 
535.377, 0.0289 
535.736, 0.0290 
536.095, 0.0290 
536.453, 0.0298 
536.812, 0.0287 
537.17, 0.0263 
537.528, 0.0295 
537.887, 0.0261 
538.245, 0.0278 
538.603, 0.0276 
538.962, 0.0254 
539.32, 0.0252 
539.678, 0.0252 
540.036, 0.0235 
540.394, 0.0254 
540.752, 0.0249 
541.11, 0.0245 
541.468, 0.0244 
541.826, 0.0258 
542.184, 0.0217 
542.541, 0.0229 
542.899, 0.0219 
543.257, 0.0213 
543.614, 0.0215 
543.972, 0.0211 
544.33, 0.0221 
544.687, 0.0214 
545.045, 0.0247 
545.402, 0.0272 
545.759, 0.0280 
546.117, 0.0245 
546.474, 0.0217 
546.831, 0.0198 
547.188, 0.0202 
547.546, 0.0176 
547.903, 0.0164 
548.26, 0.0171 
548.617, 0.0162 
548.974, 0.0162 
549.331, 0.0164 
549.687, 0.0159 
550.044, 0.0158 
550.401, 0.0152 
550.758, 0.0163 
551.114, 0.0146 
551.471, 0.0155 
551.828, 0.0138 
552.184, 0.0138 
552.541, 0.0138 
552.897, 0.0137 
553.254, 0.0129 
553.61, 0.0135 
553.966, 0.0137 
554.323, 0.0129 
554.679, 0.0129 
555.035, 0.0117 
555.391, 0.0123 
555.747, 0.0131 
556.103, 0.0131 
556.459, 0.0130 
556.815, 0.0115 
557.171, 0.0126 
557.527, 0.0124 
557.883, 0.0121 
558.239, 0.0109 
558.594, 0.0108 
558.95, 0.0117 
559.306, 0.0106 
559.661, 0.0112 
560.017, 0.0113 
560.372, 0.0096 
560.728, 0.0109 
561.083, 0.0105 
561.438, 0.0103 
561.794, 0.0106 
562.149, 0.0096 
562.504, 0.0102 
562.859, 0.0106 
563.215, 0.0102 
563.57, 0.0102 
563.925, 0.0099 
564.28, 0.0108 
564.635, 0.0096 
564.99, 0.0093 
565.344, 0.0095 
565.699, 0.0093 
566.054, 0.0091 
566.409, 0.0093 
566.763, 0.0089 
567.118, 0.0094 
567.473, 0.0080 
567.827, 0.0083 
568.182, 0.0088 
568.536, 0.0096 
568.891, 0.0089 
569.245, 0.0095 
569.599, 0.0086 
569.953, 0.0076 
570.308, 0.0090 
570.662, 0.0081 
571.016, 0.0085 
571.37, 0.0077 
571.724, 0.0094 
572.078, 0.0085 
572.432, 0.0083 
572.786, 0.0089 
573.14, 0.0082 
573.494, 0.0086 
573.847, 0.0085 
574.201, 0.0083 
574.555, 0.0081 
574.908, 0.0083 
575.262, 0.0078 
575.615, 0.0085 
575.969, 0.0091 
576.322, 0.0088 
576.676, 0.0095 
577.029, 0.0079 
577.382, 0.0079 
577.736, 0.0085 
578.089, 0.0090 
578.442, 0.0092 
578.795, 0.0092 
579.148, 0.0085 
579.501, 0.0077 
579.854, 0.0088 
580.207, 0.0083 
580.56, 0.0082 
580.913, 0.0078 
581.265, 0.0073 
581.618, 0.0083 
581.971, 0.0087 
582.324, 0.0077 
582.676, 0.0076 
583.029, 0.0072 
583.381, 0.0079 
583.734, 0.0077 
584.086, 0.0082 
584.438, 0.0068 
584.791, 0.0068 
585.143, 0.0081 
585.495, 0.0080 
585.847, 0.0082 
586.2, 0.0080 
586.552, 0.0080 
586.904, 0.0065 
587.256, 0.0081 
587.608, 0.0082 
587.959, 0.0064 
588.311, 0.0068 
588.663, 0.0070 
589.015, 0.0073 
589.367, 0.0078 
589.718, 0.0075 
590.07, 0.0067 
590.421, 0.0071 
590.773, 0.0067 
591.124, 0.0076 
591.476, 0.0070 
591.827, 0.0077 
592.179, 0.0068 
592.53, 0.0073 
592.881, 0.0067 
593.232, 0.0075 
593.584, 0.0071 
593.935, 0.0068 
594.286, 0.0067 
594.637, 0.0079 
594.988, 0.0076 
595.339, 0.0072 
595.689, 0.0069 
596.04, 0.0060 
596.391, 0.0078 
596.742, 0.0066 
597.092, 0.0075 
597.443, 0.0060 
597.794, 0.0067 
598.144, 0.0071 
598.495, 0.0070 
598.845, 0.0073 
599.196, 0.0079 
599.546, 0.0071 
599.896, 0.0063 
600.247, 0.0073 
600.597, 0.0073 
600.947, 0.0074 
601.297, 0.0060 
601.647, 0.0071 
601.997, 0.0073 
602.347, 0.0066 
602.697, 0.0073 
603.047, 0.0074 
603.397, 0.0079 
603.747, 0.0065 
604.096, 0.0070 
604.446, 0.0060 
604.796, 0.0064 
605.145, 0.0068 
605.495, 0.0063 
605.844, 0.0075 
606.194, 0.0072 
606.543, 0.0081 
606.893, 0.0076 
607.242, 0.0081 
607.591, 0.0069 
607.94, 0.0078 
608.29, 0.0066 
608.639, 0.0079 
608.988, 0.0067 
609.337, 0.0075 
609.686, 0.0077 
610.035, 0.0077 
610.384, 0.0085 
610.733, 0.0090 
611.081, 0.0100 
611.43, 0.0089 
611.779, 0.0094 
612.127, 0.0090 
612.476, 0.0092 
612.825, 0.0087 
613.173, 0.0075 
613.522, 0.0077 
613.87, 0.0078 
614.218, 0.0075 
614.567, 0.0075 
614.915, 0.0069 
615.263, 0.0080 
615.611, 0.0062 
615.96, 0.0079 
616.308, 0.0061 
616.656, 0.0071 
617.004, 0.0073 
617.352, 0.0067 
617.7, 0.0073 
618.047, 0.0072 
618.395, 0.0062 
618.743, 0.0070 
619.091, 0.0082 
619.438, 0.0070 
619.786, 0.0066 
620.134, 0.0068 
620.481, 0.0059 
620.829, 0.0074 
621.176, 0.0064 
621.523, 0.0074 
621.871, 0.0076 
622.218, 0.0075 
622.565, 0.0072 
622.912, 0.0069 
623.259, 0.0076 
623.607, 0.0070 
623.954, 0.0064 
624.301, 0.0060 
624.648, 0.0069 
624.994, 0.0068 
625.341, 0.0079 
625.688, 0.0067 
626.035, 0.0058 
626.382, 0.0078 
626.728, 0.0072 
627.075, 0.0073 
627.421, 0.0065 
627.768, 0.0066 
628.114, 0.0066 
628.461, 0.0060 
628.807, 0.0070 
629.154, 0.0066 
629.5, 0.0066 
629.846, 0.0067 
630.192, 0.0083 
630.538, 0.0061 
630.884, 0.0068 
631.231, 0.0060 
631.577, 0.0079 
631.922, 0.0073 
632.268, 0.0068 
632.614, 0.0065 
632.96, 0.0084 
633.306, 0.0070 
633.651, 0.0059 
633.997, 0.0055 
634.343, 0.0061 
634.688, 0.0065 
635.034, 0.0054 
635.379, 0.0067 
635.725, 0.0073 
636.07, 0.0066 
636.415, 0.0072 
636.761, 0.0066 
637.106, 0.0067 
637.451, 0.0071 
637.796, 0.0066 
638.141, 0.0068 
638.486, 0.0071 
638.831, 0.0069 
639.176, 0.0065 
639.521, 0.0064 
639.866, 0.0076 
640.211, 0.0067 
640.555, 0.0065 
640.9, 0.0065 
641.245, 0.0083 
641.589, 0.0059 
641.934, 0.0058 
642.278, 0.0073 
642.623, 0.0068 
642.967, 0.0065 
643.312, 0.0076 
643.656, 0.0068 
644, 0.0073 
644.344, 0.0064 
644.689, 0.0070 
645.033, 0.0063 
645.377, 0.0078 
645.721, 0.0076 
646.065, 0.0072 
646.409, 0.0067 
646.753, 0.0066 
647.096, 0.0068 
647.44, 0.0070 
647.784, 0.0087 
648.128, 0.0074 
648.471, 0.0061 
648.815, 0.0083 
649.158, 0.0079 
649.502, 0.0064 
649.845, 0.0058 
650.189, 0.0066 
650.532, 0.0081 
650.875, 0.0084 
651.218, 0.0074 
651.562, 0.0074 
651.905, 0.0077 
652.248, 0.0073 
652.591, 0.0076 
652.934, 0.0078 
653.277, 0.0078 
653.62, 0.0076 
653.963, 0.0075 
654.305, 0.0068 
654.648, 0.0060 
654.991, 0.0080 
655.334, 0.0073 
655.676, 0.0083 
656.019, 0.0078 
656.361, 0.0069 
656.704, 0.0073 
657.046, 0.0074 
657.389, 0.0062 
657.731, 0.0080 
658.073, 0.0074 
658.415, 0.0065 
658.757, 0.0079 
659.1, 0.0067 
659.442, 0.0081 
659.784, 0.0069 
660.126, 0.0071 
660.468, 0.0074 
660.809, 0.0082 
661.151, 0.0087 
661.493, 0.0082 
661.835, 0.0076 
662.177, 0.0081 
662.518, 0.0083 
662.86, 0.0084 
663.201, 0.0073 
663.543, 0.0086 
663.884, 0.0076 
664.226, 0.0080 
664.567, 0.0084 
664.908, 0.0080 
665.249, 0.0074 
665.591, 0.0092 
665.932, 0.0080 
666.273, 0.0073 
666.614, 0.0088 
666.955, 0.0082 
667.296, 0.0084 
667.637, 0.0079 
667.978, 0.0081 
668.318, 0.0078 
668.659, 0.0069 
669, 0.0093 
669.341, 0.0095 
669.681, 0.0091 
670.022, 0.0077 
670.362, 0.0078 
670.703, 0.0097 
671.043, 0.0086 
671.383, 0.0079 
671.724, 0.0073 
672.064, 0.0079 
672.404, 0.0081 
672.744, 0.0077 
673.085, 0.0082 
673.425, 0.0080 
673.765, 0.0071 
674.105, 0.0086 
674.444, 0.0085 
674.784, 0.0064 
675.124, 0.0086 
675.464, 0.0077 
675.804, 0.0078 
676.143, 0.0085 
676.483, 0.0085 
676.823, 0.0081 
677.162, 0.0082 
677.501, 0.0084 
677.841, 0.0087 
678.18, 0.0094 
678.52, 0.0085 
678.859, 0.0082 
679.198, 0.0079 
679.537, 0.0096 
679.876, 0.0079 
680.215, 0.0074 
680.555, 0.0077 
680.894, 0.0091 
681.232, 0.0084 
681.571, 0.0097 
681.91, 0.0076 
682.249, 0.0093 
682.588, 0.0075 
682.926, 0.0090 
683.265, 0.0070 
683.604, 0.0099 
683.942, 0.0075 
684.281, 0.0080 
684.619, 0.0105 
684.957, 0.0070 
685.296, 0.0095 
685.634, 0.0077 
685.972, 0.0076 
686.31, 0.0086 
686.649, 0.0068 
686.987, 0.0070 
687.325, 0.0082 
687.663, 0.0081 
688.001, 0.0070 
688.338, 0.0095 
688.676, 0.0090 
689.014, 0.0083 
689.352, 0.0075 
689.69, 0.0091 
690.027, 0.0087 
690.365, 0.0085 
690.702, 0.0077 
691.04, 0.0091 
691.377, 0.0107 
691.715, 0.0091 
692.052, 0.0100 
692.389, 0.0090 
692.726, 0.0077 
693.064, 0.0090 
693.401, 0.0099 
693.738, 0.0078 
694.075, 0.0088 
694.412, 0.0081 
694.749, 0.0072 
695.086, 0.0086 
695.423, 0.0087 
695.759, 0.0084 
696.096, 0.0095 
696.433, 0.0084 
696.769, 0.0103 
697.106, 0.0098 
697.443, 0.0088 
697.779, 0.0111 
698.116, 0.0089 
698.452, 0.0103 
698.788, 0.0108 
699.125, 0.0087 
699.461, 0.0097 
699.797, 0.0100 
700.133, 0.0090 
700.469, 0.0098 
700.805, 0.0096 
701.141, 0.0093 
701.477, 0.0110 
701.813, 0.0116 
702.149, 0.0098 
702.485, 0.0101 
702.82, 0.0067 
703.156, 0.0095 
703.492, 0.0114 
703.827, 0.0091 
704.163, 0.0091 
704.498, 0.0098 
704.834, 0.0093 
705.169, 0.0101 
705.505, 0.0095 
705.84, 0.0089 
706.175, 0.0094 
706.51, 0.0090 
706.845, 0.0103 
707.18, 0.0094 
707.515, 0.0095 
707.85, 0.0104 
708.185, 0.0107 
708.52, 0.0107 
708.855, 0.0097 
709.19, 0.0098 
709.525, 0.0104 
709.859, 0.0088 
710.194, 0.0107 
710.529, 0.0066 
710.863, 0.0109 
711.198, 0.0113 
711.532, 0.0102 
711.866, 0.0107 
712.201, 0.0121 
712.535, 0.0107 
712.869, 0.0111 
713.203, 0.0115 
713.537, 0.0115 
713.872, 0.0103 
714.206, 0.0108 
714.54, 0.0097 
714.873, 0.0098 
715.207, 0.0125 
715.541, 0.0096 
715.875, 0.0120 
716.209, 0.0124 
716.542, 0.0129 
716.876, 0.0108 
717.21, 0.0111 
717.543, 0.0131 
717.877, 0.0113 
718.21, 0.0129 
718.543, 0.0096 
718.877, 0.0089 
719.21, 0.0124 
719.543, 0.0126 
719.876, 0.0099 
720.209, 0.0104 
720.542, 0.0112 
720.875, 0.0142 
721.208, 0.0105 
721.541, 0.0102 
721.874, 0.0115 
722.207, 0.0093 
722.54, 0.0116 
722.872, 0.0137 
723.205, 0.0128 
723.538, 0.0113 
723.87, 0.0116 
724.203, 0.0105 
724.535, 0.0122 
724.868, 0.0141 
725.2, 0.0127 
725.532, 0.0135 
725.865, 0.0102 
726.197, 0.0117 
726.529, 0.0119 
726.861, 0.0129 
727.193, 0.0112 
727.525, 0.0142 
727.857, 0.0117 
728.189, 0.0104 
728.521, 0.0102 
728.853, 0.0142 
729.184, 0.0098 
729.516, 0.0135 
729.848, 0.0131 
730.179, 0.0134 
730.511, 0.0139 
730.842, 0.0126 
731.174, 0.0117 
731.505, 0.0126 
731.836, 0.0125 
732.168, 0.0139 
732.499, 0.0130 
732.83, 0.0122 
733.161, 0.0138 
733.492, 0.0134 
733.823, 0.0117 
734.154, 0.0124 
734.485, 0.0123 
734.816, 0.0122 
735.147, 0.0143 
735.478, 0.0132 
735.808, 0.0131 
736.139, 0.0150 
736.47, 0.0131 
736.8, 0.0121 
737.131, 0.0133 
737.461, 0.0124 
737.792, 0.0153 
738.122, 0.0122 
738.452, 0.0145 
738.782, 0.0116 
739.113, 0.0100 
739.443, 0.0135 
739.773, 0.0148 
740.103, 0.0140 
740.433, 0.0140 
740.763, 0.0130 
741.093, 0.0130 
741.423, 0.0123 
741.752, 0.0109 
742.082, 0.0127 
742.412, 0.0117 
742.742, 0.0145 
743.071, 0.0162 
743.401, 0.0118 
743.73, 0.0129 
744.06, 0.0139 
744.389, 0.0142 
744.718, 0.0134 
745.048, 0.0132 
745.377, 0.0145 
745.706, 0.0133 
746.035, 0.0148 
746.364, 0.0128 
746.693, 0.0126 
747.022, 0.0153 
747.351, 0.0131 
747.68, 0.0157 
748.009, 0.0145 
748.338, 0.0142 
748.666, 0.0143 
748.995, 0.0121 
749.323, 0.0144 
749.652, 0.0136 
749.981, 0.0177 
750.309, 0.0136 
750.637, 0.0153 
750.966, 0.0161 
751.294, 0.0149 
751.622, 0.0163 
751.95, 0.0161 
752.279, 0.0159 
752.607, 0.0123 
752.935, 0.0149 
753.263, 0.0145 
753.591, 0.0129 
753.919, 0.0142 
754.246, 0.0149 
754.574, 0.0156 
754.902, 0.0159 
755.23, 0.0152 
755.557, 0.0148 
755.885, 0.0147 
756.212, 0.0134 
756.54, 0.0165 
756.867, 0.0141 
757.195, 0.0126 
757.522, 0.0159 
757.849, 0.0146 
758.176, 0.0163 
758.503, 0.0189 
758.831, 0.0166 
759.158, 0.0152 
759.485, 0.0145 
759.812, 0.0177 
760.138, 0.0150 
760.465, 0.0137 
760.792, 0.0124 
761.119, 0.0181 
761.446, 0.0147 
761.772, 0.0154 
762.099, 0.0147 
762.425, 0.0158 
762.752, 0.0166 
763.078, 0.0158 
763.405, 0.0157 
763.731, 0.0179 
764.057, 0.0146 
764.383, 0.0179 
764.71, 0.0158 
765.036, 0.0159 
765.362, 0.0139 
765.688, 0.0157 
766.014, 0.0172 
766.34, 0.0166 
766.665, 0.0186 
766.991, 0.0165 
767.317, 0.0171 
767.643, 0.0178 
767.968, 0.0184 
768.294, 0.0179 
768.619, 0.0162 
768.945, 0.0157 
769.27, 0.0197 
769.596, 0.0171 
769.921, 0.0147 
770.246, 0.0183 
770.572, 0.0140 
770.897, 0.0190 
771.222, 0.0161 
771.547, 0.0179 
771.872, 0.0184 
772.197, 0.0196 
772.522, 0.0167 
772.847, 0.0171 
773.171, 0.0181 
773.496, 0.0184 
773.821, 0.0174 
774.146, 0.0172 
774.47, 0.0176 
774.795, 0.0200 
775.119, 0.0183 
775.444, 0.0201 
775.768, 0.0171 
776.092, 0.0154 
776.417, 0.0155 
776.741, 0.0204 
777.065, 0.0194 
777.389, 0.0196 
777.713, 0.0186 
778.037, 0.0209 
778.361, 0.0182 
778.685, 0.0168 
779.009, 0.0169 
779.333, 0.0205 
779.657, 0.0159 
779.98, 0.0171 
780.304, 0.0235 
780.627, 0.0190 
780.951, 0.0193 
781.274, 0.0221 
781.598, 0.0234 
781.921, 0.0199 
782.245, 0.0195 
782.568, 0.0202 
782.891, 0.0206 
783.214, 0.0189 
783.537, 0.0219 
783.861, 0.0185 
784.184, 0.0192 
784.506, 0.0178 
784.829, 0.0150 
785.152, 0.0165 
785.475, 0.0193 
785.798, 0.0216 
786.12, 0.0219 
786.443, 0.0222 
786.766, 0.0213 
787.088, 0.0179 
787.411, 0.0166 
787.733, 0.0189 
788.056, 0.0196 
788.378, 0.0170 
788.7, 0.0175 
789.022, 0.0214 
789.345, 0.0156 
789.667, 0.0237 
789.989, 0.0206 
790.311, 0.0205 
790.633, 0.0182 
790.955, 0.0226 
791.276, 0.0210 
791.598, 0.0209 
791.92, 0.0216 
792.242, 0.0183 
792.563, 0.0192 
792.885, 0.0187 
793.206, 0.0199 
793.528, 0.0209 
793.849, 0.0212 
794.171, 0.0197 
794.492, 0.0225 
794.813, 0.0209 
795.134, 0.0173 
795.456, 0.0205 
795.777, 0.0233 
796.098, 0.0203 
796.419, 0.0234 
796.74, 0.0189 
797.061, 0.0189 
797.381, 0.0214 
797.702, 0.0225 
798.023, 0.0185 
798.344, 0.0254 
798.664, 0.0235 
798.985, 0.0189 
799.305, 0.0190 
799.626, 0.0183 
799.946, 0.0233 
800.267, 0.0181 
800.587, 0.0214 
800.907, 0.0206 
801.227, 0.0195 
801.548, 0.0223 
801.868, 0.0238 
802.188, 0.0249 
802.508, 0.0220 
802.828, 0.0244 
803.147, 0.0180 
803.467, 0.0185 
803.787, 0.0158 
804.107, 0.0179 
804.426, 0.0257 
804.746, 0.0219 
805.066, 0.0206 
805.385, 0.0223 
805.705, 0.0234 
806.024, 0.0217 
806.343, 0.0225 
806.663, 0.0200 
806.982, 0.0231 
807.301, 0.0292 
807.62, 0.0216 
807.939, 0.0231 
808.258, 0.0175 
808.577, 0.0240 
808.896, 0.0254 
809.215, 0.0228 
809.534, 0.0217 
809.852, 0.0202 
810.171, 0.0204 
810.49, 0.0246 
810.808, 0.0201 
811.127, 0.0217 
811.445, 0.0284 
811.764, 0.0203 
812.082, 0.0222 
812.401, 0.0225 
812.719, 0.0270 
813.037, 0.0243 
813.355, 0.0274 
813.673, 0.0249 
813.991, 0.0243 
814.309, 0.0254 
814.627, 0.0220 
814.945, 0.0236 
815.263, 0.0271 
815.581, 0.0279 
815.899, 0.0183 
816.216, 0.0249 
816.534, 0.0295 
816.851, 0.0272 
817.169, 0.0266 
817.486, 0.0222 
817.804, 0.0329 
818.121, 0.0223 
818.438, 0.0226 
818.756, 0.0266 
819.073, 0.0297 
819.39, 0.0259 
819.707, 0.0282 
820.024, 0.0308 
820.341, 0.0300 
820.658, 0.0263 
820.975, 0.0335 
821.292, 0.0293 
821.608, 0.0293 
821.925, 0.0274 
822.242, 0.0286 
822.558, 0.0300 
822.875, 0.0332 
823.191, 0.0299 
823.508, 0.0320 
823.824, 0.0282 
824.141, 0.0302 
824.457, 0.0326 
824.773, 0.0291 
825.089, 0.0302 
825.405, 0.0344 
825.721, 0.0320 
826.037, 0.0332 
826.353, 0.0281 
826.669, 0.0270 
826.985, 0.0273 
827.301, 0.0272 
827.617, 0.0276 
827.932, 0.0283 
828.248, 0.0338 
828.563, 0.0340 
828.879, 0.0305 
829.194, 0.0319 
829.51, 0.0304 
829.825, 0.0287 
830.14, 0.0346 
830.456, 0.0254 
830.771, 0.0290 
831.086, 0.0308 
831.401, 0.0322 
831.716, 0.0332 
832.031, 0.0306 
832.346, 0.0309 
832.661, 0.0318 
832.976, 0.0274 
833.29, 0.0275 
833.605, 0.0343 
833.92, 0.0291 
834.234, 0.0348 
834.549, 0.0282 
834.863, 0.0318 
835.178, 0.0306 
835.492, 0.0371 
835.806, 0.0340 
836.121, 0.0316 
836.435, 0.0317 
836.749, 0.0285 
837.063, 0.0291 
837.377, 0.0335 
837.691, 0.0340 
838.005, 0.0342 
838.319, 0.0304 
838.633, 0.0340 
838.946, 0.0380 
839.26, 0.0301 
839.574, 0.0339 
839.887, 0.0331 
840.201, 0.0353 
840.514, 0.0338 
840.828, 0.0330 
841.141, 0.0364 
841.455, 0.0323 
841.768, 0.0355 
842.081, 0.0404 
842.394, 0.0238 
842.707, 0.0343 
843.02, 0.0405 
843.333, 0.0370 
843.646, 0.0362 
843.959, 0.0385 
844.272, 0.0385 
844.585, 0.0324 
844.898, 0.0330 
845.21, 0.0316 
845.523, 0.0430 
845.835, 0.0404 
846.148, 0.0386 
846.46, 0.0314 
846.773, 0.0328 
847.085, 0.0436 
847.397, 0.0378 
847.71, 0.0349 
848.022, 0.0317 
848.334, 0.0419 
848.646, 0.0402 
848.958, 0.0388 
849.27, 0.0452 
849.582, 0.0380 
849.894, 0.0411 
850.205, 0.0435 
850.517, 0.0413 
850.829, 0.0393 
851.141, 0.0358 
851.452, 0.0442 
851.764, 0.0382 
852.075, 0.0359 
852.386, 0.0404 
852.698, 0.0332 
853.009, 0.0371 
853.32, 0.0378 
853.632, 0.0413 
853.943, 0.0431 
854.254, 0.0372 
854.565, 0.0387 
854.876, 0.0487 
855.187, 0.0415 
855.497, 0.0454 
855.808, 0.0373 
856.119, 0.0434 
856.43, 0.0399 
856.74, 0.0432 
857.051, 0.0488 
857.361, 0.0412 
857.672, 0.0411 
857.982, 0.0526 
858.293, 0.0522 
858.603, 0.0410 
858.913, 0.0426 
859.223, 0.0490 
859.533, 0.0468 
859.844, 0.0449 
860.154, 0.0409 
860.464, 0.0498 
860.773, 0.0391 
861.083, 0.0417 
861.393, 0.0555 
861.703, 0.0476 
862.013, 0.0355 
862.322, 0.0431 
862.632, 0.0482 
862.941, 0.0493 
863.251, 0.0495 
863.56, 0.0454 
863.869, 0.0430 
864.179, 0.0445 
864.488, 0.0415 
864.797, 0.0499 
865.106, 0.0440 
865.415, 0.0474 
865.724, 0.0380 
866.033, 0.0475 
866.342, 0.0507 
866.651, 0.0496 
866.96, 0.0514 
867.269, 0.0612 
867.577, 0.0512 
867.886, 0.0547 
868.195, 0.0543 
868.503, 0.0455 
868.812, 0.0404 
869.12, 0.0490 
869.428, 0.0469 
869.737, 0.0494 
870.045, 0.0510 
870.353, 0.0465 
870.661, 0.0554 
870.969, 0.0571 
871.277, 0.0532 
871.585, 0.0457 
871.893, 0.0512 
872.201, 0.0558 
872.509, 0.0460 
872.817, 0.0498 
873.124, 0.0526 
873.432, 0.0565 
873.739, 0.0509 
874.047, 0.0497 
874.354, 0.0473 
874.662, 0.0538 
874.969, 0.0707 
875.276, 0.0554 
875.584, 0.0504 
875.891, 0.0450 
876.198, 0.0497 
876.505, 0.0602 
876.812, 0.0556 
877.119, 0.0578 
877.426, 0.0504 
877.733, 0.0662 
878.04, 0.0487 
878.346, 0.0549 
878.653, 0.0611 
878.96, 0.0566 
879.266, 0.0594 
879.573, 0.0578 
879.879, 0.0536 
880.185, 0.0677 
880.492, 0.0706 
880.798, 0.0558 
881.104, 0.0640 
881.411, 0.0714 
881.717, 0.0505 
882.023, 0.0698 
882.329, 0.0504 
882.635, 0.0669 
882.941, 0.0630 
883.246, 0.0578 
883.552, 0.0521 
883.858, 0.0720 
884.164, 0.0728 
884.469, 0.0683 
884.775, 0.0585 
885.08, 0.0752 
885.386, 0.0742 
885.691, 0.0629 
885.996, 0.0717 
886.302, 0.0675 
886.607, 0.0746 
886.912, 0.0767 
887.217, 0.0747 
887.522, 0.0621 
887.827, 0.0729 
888.132, 0.0699 
888.437, 0.0702 
888.742, 0.0704 
889.046, 0.0810 
889.351, 0.0611 
889.656, 0.0675 
889.96, 0.0659 
890.265, 0.0756 
890.569, 0.0687 
890.874, 0.0699 
891.178, 0.0735 
891.483, 0.0785 
891.787, 0.0835 
892.091, 0.0672 
892.395, 0.0822 
892.699, 0.0853 
893.003, 0.0703 
893.307, 0.0708 
893.611, 0.0705 
893.915, 0.0857 
894.219, 0.0805 
894.523, 0.0743 
894.826, 0.0794 
895.13, 0.0658 
895.433, 0.0804 
895.737, 0.0613 
896.04, 0.0649 
896.344, 0.0665 
896.647, 0.0697 
896.95, 0.0734 
897.254, 0.0726 
897.557, 0.0858 
897.86, 0.0643 
898.163, 0.0649 
898.466, 0.0792 
898.769, 0.0789 
899.072, 0.0989 
899.375, 0.0849 
899.677, 0.0673 
899.98, 0.0745 
900.283, 0.0753 
900.585, 0.0754 
900.888, 0.0766 
901.191, 0.0676 
901.493, 0.0766 
901.795, 0.0731 
902.098, 0.1003 
902.4, 0.0917 
902.702, 0.0747 
903.004, 0.0792 
903.306, 0.0726 
903.608, 0.0875 
903.91, 0.0724 
904.212, 0.0727 
904.514, 0.0750 
904.816, 0.0885 
905.118, 0.0984 
905.42, 0.0848 
905.721, 0.0818 
906.023, 0.0907 
906.324, 0.0682 
906.626, 0.0799 
906.927, 0.0774 
907.228, 0.0859 
907.53, 0.0796 
907.831, 0.0761 
908.132, 0.0825 
908.433, 0.0879 
908.734, 0.0783 
909.035, 0.0956 
909.336, 0.0882 
909.637, 0.0795 
909.938, 0.0959 
910.239, 0.0958 
910.54, 0.0899 
910.84, 0.0840 
911.141, 0.0843 
911.441, 0.0919 
911.742, 0.0747 
912.042, 0.0856 
912.343, 0.1114 
912.643, 0.0821 
912.943, 0.0849 
913.244, 0.0727 
913.544, 0.0869 
913.844, 0.0734 
914.144, 0.0878 
914.444, 0.1068 
914.744, 0.1098 
915.044, 0.0901 
915.343, 0.1050 
915.643, 0.0912 
915.943, 0.0862 
916.243, 0.0881 
916.542, 0.0950 
916.842, 0.0885 
917.141, 0.0871 
917.441, 0.0936 
917.74, 0.0975 
918.039, 0.1000 
918.338, 0.1120 
918.638, 0.0952 
918.937, 0.0911 
919.236, 0.1133 
919.535, 0.0963 
919.834, 0.1146 
920.133, 0.1051 
920.431, 0.1038 
920.73, 0.1227 
921.029, 0.1045 
921.328, 0.1031 
921.626, 0.1168 
921.925, 0.0982 
922.223, 0.1141 
922.522, 0.1047 
922.82, 0.1209 
923.118, 0.1123 
923.417, 0.1161 
923.715, 0.1284 
924.013, 0.1074 
924.311, 0.1127 
924.609, 0.1228 
924.907, 0.1406 
925.205, 0.1128 
925.503, 0.1120 
925.801, 0.1375 
926.098, 0.1065 
926.396, 0.1210 
926.694, 0.1178 
926.991, 0.1029 
927.289, 0.1234 
927.586, 0.1077 
927.884, 0.1487 
928.181, 0.1127 
928.478, 0.1169 
928.775, 0.1451 
929.073, 0.1152 
929.37, 0.1196 
929.667, 0.1398 
929.964, 0.1498 
930.261, 0.1139 
930.557, 0.1544 
930.854, 0.1285 
931.151, 0.1452 
931.448, 0.1419 
931.744, 0.1460 
932.041, 0.1529 
932.337, 0.1345 
932.634, 0.1137 
932.93, 0.1175 
933.227, 0.1691 
933.523, 0.1303 
933.819, 0.1402 
934.115, 0.1442 
934.412, 0.1300 
934.708, 0.1189 
935.004, 0.1564 
935.3, 0.1494 
935.595, 0.1464 
935.891, 0.1724 
936.187, 0.1382 
936.483, 0.1622 
936.778, 0.1402 
937.074, 0.1736 
937.369, 0.1668 
937.665, 0.1891 
937.96, 0.1541 
938.256, 0.1606 
938.551, 0.1452 
938.846, 0.1554 
939.141, 0.1591 
939.437, 0.2003 
939.732, 0.1502 
940.027, 0.1722 
940.322, 0.1477 
940.617, 0.1992 
940.911, 0.1579 
941.206, 0.2131 
941.501, 0.1900 
941.796, 0.1341 
942.09, 0.2042 
942.385, 0.2156 
942.679, 0.1848 
942.974, 0.1683 
943.268, 0.2278 
943.562, 0.2092 
943.857, 0.1983 
944.151, 0.1965 
944.445, 0.1678 
944.739, 0.2073 
945.033, 0.1878 
945.327, 0.1989 
945.621, 0.1559 
945.915, 0.2122 
946.208, 0.1853 
946.502, 0.2092 
946.796, 0.2011 
947.089, 0.1769 
947.383, 0.1923 
947.676, 0.2096 
947.97, 0.2057 
948.263, 0.1706 
948.557, 0.1850 
948.85, 0.2144 
949.143, 0.2323 
949.436, 0.2129 
949.729, 0.1994 
950.022, 0.2709 
950.315, 0.2243 
950.608, 0.2061 
950.901, 0.2224 
951.194, 0.2474 
951.487, 0.2480 
951.779, 0.2148 
952.072, 0.2392 
952.364, 0.1697 
952.657, 0.2305 
952.949, 0.2508 
953.242, 0.2715 
953.534, 0.2860 
953.826, 0.2237 
954.118, 0.2396 
954.411, 0.2593 
954.703, 0.2666 
954.995, 0.2940 
955.287, 0.3093 
955.579, 0.2723 
955.87, 0.2585 
956.162, 0.2553 
956.454, 0.3189 
956.746, 0.2806 
957.037, 0.3075 
957.329, 0.3684 
957.62, 0.2163 
957.912, 0.2068 
958.203, 0.2844 
958.494, 0.3519 
958.786, 0.2819 
959.077, 0.2882 
959.368, 0.3410 
959.659, 0.2523 
959.95, 0.3098 
960.241, 0.3272 
960.532, 0.3322 
960.823, 0.3593 
961.114, 0.3011 
961.404, 0.3078 
961.695, 0.3166 
961.986, 0.3252 
962.276, 0.2950 
962.567, 0.3372 
962.857, 0.3242 
963.147, 0.3295 
963.438, 0.3410 
963.728, 0.2841 
964.018, 0.3253 
964.308, 0.3206 
964.598, 0.3239 
964.888, 0.3126 
965.178, 0.3129 
965.468, 0.3273 
965.758, 0.3890 
966.048, 0.3440 
966.338, 0.3288 
966.627, 0.3111 
966.917, 0.3441 
967.206, 0.3820 
967.496, 0.3493 
967.785, 0.4063 
968.075, 0.4202 
968.364, 0.3815 
968.653, 0.4199 
968.942, 0.4155 
969.232, 0.3701 
969.521, 0.4722 
969.81, 0.4498 
970.099, 0.4186 
970.388, 0.4508 
970.676, 0.4697 
970.965, 0.4457 
971.254, 0.4344 
971.543, 0.4168 
971.831, 0.3878 
972.12, 0.4679 
972.408, 0.4436 
972.697, 0.4518 
972.985, 0.3836 
973.273, 0.4232 
973.561, 0.5152 
973.85, 0.4756 
974.138, 0.5112 
974.426, 0.5098 
974.714, 0.4196 
975.002, 0.5316 
975.29, 0.4622 
975.577, 0.4604 
975.865, 0.5221 
976.153, 0.5088 
976.441, 0.4639 
976.728, 0.4612 
977.016, 0.4894 
977.303, 0.5394 
977.59, 0.5135 
977.878, 0.5269 
978.165, 0.6254 
978.452, 0.4797 
978.74, 0.5462 
979.027, 0.4794 
979.314, 0.5057 
979.601, 0.4989 
979.888, 0.5518 
980.174, 0.5494 
980.461, 0.5749 
980.748, 0.6311 
981.035, 0.5430 
981.321, 0.4829 
981.608, 0.5683 
981.894, 0.6207 
982.181, 0.4880 
982.467, 0.6310 
982.754, 0.5006 
983.04, 0.5757 
983.326, 0.6144 
983.612, 0.6860 
983.898, 0.6196 
984.184, 0.7026 
984.47, 0.6397 
984.756, 0.6794 
985.042, 0.5104 
985.328, 0.6557 
985.614, 0.5784 
985.899, 0.7109 
986.185, 0.6091 
986.47, 0.6301 
986.756, 0.7078 
987.041, 0.8443 
987.327, 0.6731 
987.612, 0.7443 
987.897, 0.6942 
988.182, 0.7960 
988.468, 0.7552 
988.753, 0.7547 
989.038, 0.6478 
989.323, 0.7747 
989.607, 0.7525 
989.892, 0.6966 
990.177, 0.7624 
990.462, 0.6354 
990.746, 0.8479 
991.031, 0.6513 
991.315, 0.7530 
991.6, 0.8054 
991.884, 0.8517 
992.169, 0.7921 
992.453, 0.7715 
992.737, 0.8322 
993.021, 0.9681 
993.305, 0.9056 
993.59, 0.8647 
993.874, 0.8630 
994.157, 0.7085 
994.441, 0.7249 
994.725, 0.8694 
995.009, 0.8708 
995.293, 0.9123 
995.576, 0.9335 
995.86, 0.9460 
996.143, 0.9114 
996.427, 0.8530 
996.71, 0.7765 
996.993, 0.9723 
997.277, 0.7956 
997.56, 0.7295 
997.843, 0.8717 
998.126, 1.0169 
998.409, 0.9592 
998.692, 1.0009 
998.975, 0.9864 
999.258, 1.1423 
999.541, 0.8943 
999.823, 0.8430 
1000.106, 1.0117 
1000.388, 0.8728 
1000.671, 1.0345 
1000.954, 1.2133 
1001.236, 1.2419 
1001.518, 1.3120 
1001.801, 1.3971 
1002.083, 1.2705 
1002.365, 1.2044 
1002.647, 1.2066 
1002.929, 1.2502 
1003.211, 1.3193 
1003.493, 1.0791 
1003.775, 1.3512 
1004.057, 1.2895 
1004.338, 1.2463 
1004.62, 1.3679 
1004.902, 1.2444 
1005.183, 1.2507 
1005.465, 1.3552 
1005.746, 1.3592 
1006.028, 1.2657 
1006.309, 1.4470 
1006.59, 1.3970 
1006.871, 1.2259 
1007.153, 1.3081 
1007.434, 1.1955 
1007.715, 1.4000 
1007.996, 1.6096 
1008.277, 1.2584 
1008.557, 1.8077 
1008.838, 1.3516 
1009.119, 1.2588 
1009.4, 1.6974 
1009.68, 1.5968 
1009.961, 1.3028 
1010.241, 1.4062 
1010.522, 1.5608 
1010.802, 1.6432 
1011.082, 1.6561 
1011.362, 1.7804 
1011.643, 1.7990 
1011.923, 1.8196 
1012.203, 1.5098 
1012.483, 1.6667 
1012.763, 1.8687 
1013.042, 1.8714 
1013.322, 1.7708 
1013.602, 1.5150 
1013.882, 2.0709 
1014.161, 1.7415 
1014.441, 2.0614 
1014.72, 1.4699 
1015, 1.8751 
1015.279, 1.8843 
1015.558, 2.0670 
1015.838, 1.9602 
1016.117, 2.4064 
1016.396, 2.1732 
1016.675, 1.5101 
1016.954, 2.2180 
1017.233, 2.2698 
1017.512, 1.9139 
1017.791, 2.5204 
1018.07, 2.0337 
1018.348, 1.9619 
1018.627, 1.8008 
1018.905, 2.2177 
1019.184, 1.9093 
1019.462, 2.3775 
1019.741, 2.4229 
1020.019, 2.1695 
1020.297, 2.5724 
1020.576, 1.9565 
1020.854, 2.6321 
1021.132, 2.5471 
1021.41, 2.5458 
1021.688, 2.5445 
