Wavelength, W/m2 
346.47,1.447376717
346.85,0.150112788
347.23,0.150891475
347.611,0.058159252
347.991,0.094738083
348.371,0.067880322
348.751,0.03716945
349.131,0.044472988
349.511,0.05332599
349.891,0.055506986
350.27,0.043160374
350.65,0.052277597
351.03,0.039964588
351.41,0.035384611
351.79,0.046871355
352.169,0.050275406
352.549,0.0581825
352.928,0.055270876
353.308,0.050880343
353.687,0.051183645
354.067,0.047810284
3.54E+02,0.051278664
3.55E+02,0.034901827
3.55E+02,0.067147471
3.56E+02,0.053265165
3.56E+02,0.054187857
3.56E+02,0.053151236
3.57E+02,0.037436889
3.57E+02,0.041044113
3.57E+02,0.043406052
3.58E+02,0.051047155
3.58E+02,0.04804743
3.59E+02,0.039189923
3.59E+02,0.039684366
3.59E+02,0.04944473
3.60E+02,0.051173519
3.60E+02,0.036259144
3.61E+02,0.037326875
3.61E+02,0.041661412
3.61E+02,0.035186928
3.62E+02,0.038411871
3.62E+02,0.038528689
3.62E+02,0.038503985
3.63E+02,0.035832536
3.63E+02,0.037217
3.64E+02,0.033792128
3.64E+02,0.040717335
3.64E+02,0.04693121
3.65E+02,0.040239215
3.65E+02,0.029928814
3.65E+02,0.032780359
3.66E+02,0.030064325
3.66E+02,0.036005392
3.67E+02,0.03607872
3.67E+02,0.030655609
3.67E+02,0.035167212
3.68E+02,0.036135543
3.68E+02,0.034760298
3.68E+02,0.038475505
3.69E+02,0.029687276
3.69E+02,0.033326565
3.70E+02,0.039892752
3.70E+02,0.03510918
3.70E+02,0.036302743
3.71E+02,0.042643559
3.71E+02,0.03078796
3.71E+02,0.033865886
3.72E+02,0.03697271
3.72E+02,0.032655929
3.73E+02,0.032281946
3.73E+02,0.037882803
3.73E+02,0.029815211
3.74E+02,0.03191953
3.74E+02,0.029916565
3.74E+02,0.02745952
3.75E+02,0.031662203
3.75E+02,0.038662907
3.76E+02,0.030439692
3.76E+02,0.032847029
3.76E+02,0.028173801
3.77E+02,0.033674705
3.77E+02,0.029673146
3.78E+02,0.030844842
3.78E+02,0.028329874
3.78E+02,0.025716125
3.79E+02,0.031479256
3.79E+02,0.026271096
3.79E+02,0.032473365
3.80E+02,0.028987868
3.80E+02,0.023595133
3.81E+02,0.030608979
3.81E+02,0.02791402
3.81E+02,0.028534874
3.82E+02,0.020243496
3.82E+02,0.019615087
3.82E+02,0.018333007
3.83E+02,0.017793054
3.83E+02,0.027156139
3.84E+02,0.025220061
3.84E+02,0.028116718
3.84E+02,0.027699996
3.85E+02,0.027283365
3.85E+02,0.023861761
3.85E+02,0.028562951
3.86E+02,0.023911151
3.86E+02,0.025057078
3.87E+02,0.030001737
3.87E+02,0.021741465
3.87E+02,0.021743363
3.88E+02,0.021196694
3.88E+02,0.021856785
3.88E+02,0.020813363
3.89E+02,0.01878605
3.89E+02,0.017465837
3.90E+02,0.017466335
3.90E+02,0.018660633
3.90E+02,0.024154556
3.91E+02,0.019898094
3.91E+02,0.019213921
3.91E+02,0.019001326
3.92E+02,0.02119552
3.92E+02,0.019162707
3.93E+02,0.021325311
3.93E+02,0.019730731
3.93E+02,0.019660194
3.94E+02,0.021860354
3.94E+02,0.019153469
3.94E+02,0.021451133
3.95E+02,0.017225584
3.95E+02,0.018016854
3.96E+02,0.017649231
3.96E+02,0.017095714
3.96E+02,0.020596862
3.97E+02,0.016769662
3.97E+02,0.016462959
3.97E+02,0.015136366
3.98E+02,0.016946867
3.98E+02,0.015580742
3.99E+02,0.016581607
3.99E+02,0.016606499
3.99E+02,0.016282104
4.00E+02,0.017028175
4.00E+02,0.017546342
4.00E+02,0.019647098
4.01E+02,0.013350433
4.01E+02,0.016734802
4.02E+02,0.018661228
4.02E+02,0.014507425
4.02E+02,0.015939547
4.03E+02,0.019916081
4.03E+02,0.019517026
4.03E+02,0.025520518
4.04E+02,0.039654904
4.04E+02,0.044153242
4.05E+02,0.022828361
4.05E+02,0.016021301
4.05E+02,0.017035004
4.06E+02,0.015025405
4.06E+02,0.01786497
4.06E+02,0.01460258
4.07E+02,0.017950069
4.07E+02,0.019020433
4.08E+02,0.018440852
4.08E+02,0.018397333
4.08E+02,0.017634396
4.09E+02,0.014176464
4.09E+02,0.016654043
4.09E+02,0.015308352
4.10E+02,0.015533389
4.10E+02,0.011900066
4.11E+02,0.013843008
4.11E+02,0.015611177
4.11E+02,0.014344532
4.12E+02,0.015059619
4.12E+02,0.012978134
4.12E+02,0.01800256
4.13E+02,0.015325069
4.13E+02,0.011988232
4.14E+02,0.014284051
4.14E+02,0.032219262
4.14E+02,0.013513154
4.15E+02,0.015515291
4.15E+02,0.013648211
4.15E+02,0.015498454
4.16E+02,0.015783514
4.16E+02,0.01283289
4.17E+02,0.015428214
4.17E+02,0.011923251
4.17E+02,0.014386064
4.18E+02,0.013404229
4.18E+02,0.013096596
4.18E+02,0.012263039
4.19E+02,0.013360779
4.19E+02,0.012276948
4.19E+02,0.014970347
4.20E+02,0.013788561
4.20E+02,0.01486299
4.21E+02,0.014055336
4.21E+02,0.015588678
4.21E+02,0.014438497
4.22E+02,0.013255302
4.22E+02,0.011722941
4.22E+02,0.01498294
4.23E+02,0.012267968
4.23E+02,0.014943905
4.24E+02,0.013273333
4.24E+02,0.013387948
4.24E+02,0.017082166
4.25E+02,0.01262512
4.25E+02,0.012641755
4.25E+02,0.01283162
4.26E+02,0.016174014
4.26E+02,0.01356166
4.27E+02,0.013318149
4.27E+02,0.014793247
4.27E+02,0.014887638
4.28E+02,0.012506936
4.28E+02,0.013778808
4.28E+02,0.013778173
4.29E+02,0.012794095
4.29E+02,0.013485699
4.30E+02,0.014080338
4.30E+02,0.015005729
4.30E+02,0.012885578
4.31E+02,0.014123554
4.31E+02,0.014475307
4.31E+02,0.014844649
4.32E+02,0.015252912
4.32E+02,0.011742772
4.32E+02,0.018724883
4.33E+02,0.014576515
4.33E+02,0.014728696
4.34E+02,0.014095268
4.34E+02,0.015427623
4.34E+02,0.016897365
4.35E+02,0.056988736
4.35E+02,0.083850903
4.35E+02,0.077119827
4.36E+02,0.03615977
4.36E+02,0.018158711
4.37E+02,0.013307538
4.37E+02,0.011450415
4.37E+02,0.011202792
4.38E+02,0.013236821
4.38E+02,0.013465028
4.38E+02,0.012230361
4.39E+02,0.012806577
4.39E+02,0.012698784
4.40E+02,0.010802202
4.40E+02,0.010929673
4.40E+02,0.011670335
4.41E+02,0.010890996
4.41E+02,0.012440325
4.41E+02,0.011675916
4.42E+02,0.012944066
4.42E+02,0.01238723
4.42E+02,0.01304032
4.43E+02,0.012429103
4.43E+02,0.010276009
4.44E+02,0.011833395
4.44E+02,0.013892449
4.44E+02,0.013805881
4.45E+02,0.01424797
4.45E+02,0.011943934
4.45E+02,0.012312904
4.46E+02,0.010364225
4.46E+02,0.011757959
4.47E+02,0.009908056
4.47E+02,0.013488666
4.47E+02,0.013309964
4.48E+02,0.012475803
4.48E+02,0.01318714
4.48E+02,0.012506955
4.49E+02,0.012979894
4.49E+02,0.012717054
4.50E+02,0.012389148
4.50E+02,0.010705444
4.50E+02,0.012670806
4.51E+02,0.011426856
4.51E+02,0.012456271
4.51E+02,0.01171666
4.52E+02,0.013375
4.52E+02,0.013860095
4.52E+02,0.01240447
4.53E+02,0.011747971
4.53E+02,0.011369858
4.54E+02,0.012846451
4.54E+02,0.012253768
4.54E+02,0.013747872
4.55E+02,0.013002535
4.55E+02,0.012080773
4.55E+02,0.009780259
4.56E+02,0.013165712
4.56E+02,0.012803992
4.57E+02,0.01241656
4.57E+02,0.013587767
4.57E+02,0.01130733
4.58E+02,0.011889834
4.58E+02,0.012521895
4.58E+02,0.010409478
4.59E+02,0.011768838
4.59E+02,0.013730302
4.59E+02,0.013543645
4.60E+02,0.01053263
4.60E+02,0.012007355
4.61E+02,0.012385808
4.61E+02,0.012034953
4.61E+02,0.012465763
4.62E+02,0.009435361
4.62E+02,0.012193865
4.62E+02,0.010932973
4.63E+02,0.011166834
4.63E+02,0.011066379
4.63E+02,0.011374743
4.64E+02,0.010841678
4.64E+02,0.012619307
4.65E+02,0.011550898
4.65E+02,0.011496757
4.65E+02,0.012733847
4.66E+02,0.011802164
4.66E+02,0.014810253
4.66E+02,0.012360875
4.67E+02,0.012064852
4.67E+02,0.012270095
4.68E+02,0.012644721
4.68E+02,0.010355408
4.68E+02,0.011090647
4.69E+02,0.011278458
4.69E+02,0.011230616
4.69E+02,0.013581407
4.70E+02,0.012304563
4.70E+02,0.011519647
4.70E+02,0.013006016
4.71E+02,0.010453143
4.71E+02,0.010158214
4.72E+02,0.011272114
4.72E+02,0.010270152
4.72E+02,0.01154817
4.73E+02,0.008318763
4.73E+02,0.011234757
4.73E+02,0.011836878
4.74E+02,0.012546545
4.74E+02,0.01244876
4.74E+02,0.013786759
4.75E+02,0.012034938
4.75E+02,0.011065588
4.76E+02,0.011467801
4.76E+02,0.011810881
4.76E+02,0.010688221
4.77E+02,0.010133391
4.77E+02,0.01257299
4.77E+02,0.009821011
4.78E+02,0.011797066
4.78E+02,0.010899234
4.79E+02,0.012744518
4.79E+02,0.012543576
4.79E+02,0.012435275
4.80E+02,0.010834754
4.80E+02,0.013027002
4.80E+02,0.012487874
4.81E+02,0.012446429
4.81E+02,0.011946173
4.81E+02,0.011606291
4.82E+02,0.0127888
4.82E+02,0.01117433
4.83E+02,0.012467079
4.83E+02,0.012168046
4.83E+02,0.013349282
4.84E+02,0.013577446
4.84E+02,0.012463402
4.84E+02,0.014745566
4.85E+02,0.014697247
4.85E+02,0.014936831
4.85E+02,0.014993953
4.86E+02,0.016220101
4.86E+02,0.015921441
4.87E+02,0.015254269
4.87E+02,0.015584317
4.87E+02,0.017666691
4.88E+02,0.016705576
4.88E+02,0.015932007
4.88E+02,0.017264311
4.89E+02,0.016946812
4.89E+02,0.017106561
4.89E+02,0.016864835
4.90E+02,0.017812696
4.90E+02,0.018199652
4.91E+02,0.018805959
4.91E+02,0.01803583
4.91E+02,0.019510102
4.92E+02,0.018502702
4.92E+02,0.020227412
4.92E+02,0.022670111
4.93E+02,0.020779423
4.93E+02,0.022450746
4.93E+02,0.021784457
4.94E+02,0.022209685
4.94E+02,0.022136581
4.95E+02,0.022466859
4.95E+02,0.024874207
4.95E+02,0.025259447
4.96E+02,0.0253214
4.96E+02,0.025169202
4.96E+02,0.027753956
4.97E+02,0.029261123
4.97E+02,0.029424669
4.97E+02,0.029307114
4.98E+02,0.031050871
4.98E+02,0.032090244
4.99E+02,0.03177711
4.99E+02,0.032623001
4.99E+02,0.035226431
5.00E+02,0.036314674
5.00E+02,0.036659567
5.00E+02,0.038100473
5.01E+02,0.040544873
5.01E+02,0.040908569
5.01E+02,0.043169132
5.02E+02,0.044287884
5.02E+02,0.04359429
5.03E+02,0.04650064
5.03E+02,0.049930255
5.03E+02,0.049708857
5.04E+02,0.052144379
5.04E+02,0.05334601
5.04E+02,0.053460193
5.05E+02,0.056725784
5.05E+02,0.058527293
5.05E+02,0.059916035
5.06E+02,0.061500959
5.06E+02,0.064981045
5.07E+02,0.064407405
5.07E+02,0.070150969
5.07E+02,0.070883436
5.08E+02,0.071506702
5.08E+02,0.07138425
5.08E+02,0.07700894
5.09E+02,0.077456639
5.09E+02,0.078100982
5.09E+02,0.082863574
5.10E+02,0.083045823
5.10E+02,0.083129889
5.11E+02,0.088437813
5.11E+02,0.088523282
5.11E+02,0.088177136
5.12E+02,0.090127186
5.12E+02,0.093494624
5.12E+02,0.090181709
5.13E+02,0.094835336
5.13E+02,0.095643519
5.13E+02,0.096664356
5.14E+02,0.100676989
5.14E+02,0.097517796
5.15E+02,0.099749038
5.15E+02,0.10148005
5.15E+02,0.104856954
5.16E+02,0.102032947
5.16E+02,0.102315343
5.16E+02,0.104026692
5.17E+02,0.102277451
5.17E+02,0.10176813
5.17E+02,0.101282651
5.18E+02,0.100970465
5.18E+02,0.100612187
5.18E+02,0.09835564
5.19E+02,0.098497066
5.19E+02,0.099373904
5.20E+02,0.098275966
5.20E+02,0.095517515
5.20E+02,0.091902366
5.21E+02,0.095200197
5.21E+02,0.093848864
5.21E+02,0.090794119
5.22E+02,0.090913492
5.22E+02,0.088574539
5.22E+02,0.088945371
5.23E+02,0.086188552
5.23E+02,0.086755879
5.24E+02,0.083149098
5.24E+02,0.084982724
5.24E+02,0.080434455
5.25E+02,0.079625334
5.25E+02,0.078777014
5.25E+02,0.0755826
5.26E+02,0.076663214
5.26E+02,0.075314023
5.26E+02,0.075872306
5.27E+02,0.071309131
5.27E+02,0.069804168
5.27E+02,0.068225941
5.28E+02,0.068664039
5.28E+02,0.066454322
5.29E+02,0.067213694
5.29E+02,0.063716023
5.29E+02,0.06255806
5.30E+02,0.062497087
5.30E+02,0.061881157
5.30E+02,0.061767988
5.31E+02,0.059296717
5.31E+02,0.060230858
5.31E+02,0.057185715
5.32E+02,0.057606879
5.32E+02,0.057542157
5.33E+02,0.054999915
5.33E+02,0.054686946
5.33E+02,0.053947671
5.34E+02,0.052323313
5.34E+02,0.051081093
5.34E+02,0.052011617
5.35E+02,0.05163983
5.35E+02,0.051022546
5.35E+02,0.048769657
5.36E+02,0.048591369
5.36E+02,0.046365388
5.36E+02,0.046661257
5.37E+02,0.047584571
5.37E+02,0.045997537
5.38E+02,0.043826214
5.38E+02,0.04450752
5.38E+02,0.044495845
5.39E+02,0.044301885
5.39E+02,0.043435603
5.39E+02,0.04384867
5.40E+02,0.042837748
5.40E+02,0.042702659
5.40E+02,0.04261373
5.41E+02,0.041906667
5.41E+02,0.045093413
5.41E+02,0.043900829
5.42E+02,0.042570562
5.42E+02,0.042801297
5.43E+02,0.040760855
5.43E+02,0.037960846
5.43E+02,0.037713026
5.44E+02,0.040020276
5.44E+02,0.037097397
5.44E+02,0.038177207
5.45E+02,0.051549139
5.45E+02,0.066621979
5.45E+02,0.072519963
5.46E+02,0.063221465
5.46E+02,0.050591448
5.46E+02,0.041950212
5.47E+02,0.037675961
5.47E+02,0.032056606
5.48E+02,0.033010276
5.48E+02,0.030194293
5.48E+02,0.029483738
5.49E+02,0.028726503
5.49E+02,0.027373062
5.49E+02,0.026222739
5.50E+02,0.027632662
5.50E+02,0.025617662
5.50E+02,0.027628119
5.51E+02,0.02468065
5.51E+02,0.025395298
5.51E+02,0.024085433
5.52E+02,0.023191478
5.52E+02,0.022821449
5.53E+02,0.022325201
5.53E+02,0.022881691
5.53E+02,0.021907779
5.54E+02,0.021866493
5.54E+02,0.023182927
5.54E+02,0.023018974
5.55E+02,0.021373826
5.55E+02,0.020362371
5.55E+02,0.02041594
5.56E+02,0.020544192
5.56E+02,0.020839467
5.56E+02,0.020994993
5.57E+02,0.019784236
5.57E+02,0.020591385
5.58E+02,0.018884524
5.58E+02,0.019327704
5.58E+02,0.019418896
5.59E+02,0.019057198
5.59E+02,0.017782447
5.59E+02,0.019405534
5.60E+02,0.018588234
5.60E+02,0.018282232
5.60E+02,0.018181591
5.61E+02,0.018763506
5.61E+02,0.017176029
5.61E+02,0.016856184
5.62E+02,0.018383238
5.62E+02,0.01815922
5.63E+02,0.017540091
5.63E+02,0.018282089
5.63E+02,0.017463748
5.64E+02,0.016491932
5.64E+02,0.017464086
5.64E+02,0.017362309
5.65E+02,0.016347094
5.65E+02,0.01652948
5.65E+02,0.015838825
5.66E+02,0.016194208
5.66E+02,0.016573654
5.66E+02,0.016921807
5.67E+02,0.016693202
5.67E+02,0.016854695
5.67E+02,0.016908435
5.68E+02,0.016054636
5.68E+02,0.015368932
5.69E+02,0.015973438
5.69E+02,0.016493298
5.69E+02,0.01645803
5.70E+02,0.015386129
5.70E+02,0.016603002
5.70E+02,0.015137032
5.71E+02,0.015198041
5.71E+02,0.015323003
5.71E+02,0.015611159
5.72E+02,0.015197775
5.72E+02,0.014810769
5.72E+02,0.014451381
5.73E+02,0.015218773
5.73E+02,0.014774731
5.73E+02,0.014583968
5.74E+02,0.015171607
5.74E+02,0.014798891
5.75E+02,0.014482733
5.75E+02,0.014588092
5.75E+02,0.015137989
5.76E+02,0.01706268
5.76E+02,0.018352973
5.76E+02,0.020092002
5.77E+02,0.019269308
5.77E+02,0.016558455
5.77E+02,0.015658929
5.78E+02,0.01741951
5.78E+02,0.019387512
5.78E+02,0.01975332
5.79E+02,0.016968843
5.79E+02,0.016990913
5.80E+02,0.016180197
5.80E+02,0.016211251
5.80E+02,0.016095371
5.81E+02,0.014511481
5.81E+02,0.015504149
5.81E+02,0.014841757
5.82E+02,0.014145615
5.82E+02,0.013825821
5.82E+02,0.014249594
5.83E+02,0.016416334
5.83E+02,0.014891845
5.83E+02,0.014420813
5.84E+02,0.014867882
5.84E+02,0.015166766
5.84E+02,0.014285167
5.85E+02,0.015249054
5.85E+02,0.014501373
5.85E+02,0.014127299
5.86E+02,0.015090809
5.86E+02,0.014148605
5.87E+02,0.015391446
5.87E+02,0.015015433
5.87E+02,0.014847273
5.88E+02,0.013731189
5.88E+02,0.01429973
5.88E+02,0.014131883
5.89E+02,0.014773748
5.89E+02,0.01409095
5.89E+02,0.013471767
5.90E+02,0.014875203
5.90E+02,0.013357285
5.90E+02,0.012527268
5.91E+02,0.013902038
5.91E+02,0.013819695
5.91E+02,0.014054158
5.92E+02,0.012730047
5.92E+02,0.01512699
5.93E+02,0.012890895
5.93E+02,0.012670963
5.93E+02,0.013289456
5.94E+02,0.01360389
5.94E+02,0.01363042
5.94E+02,0.012245338
5.95E+02,0.012833316
5.95E+02,0.013676643
5.95E+02,0.011795799
5.96E+02,0.012100408
5.96E+02,0.012260251
5.96E+02,0.013418303
5.97E+02,0.013622772
5.97E+02,0.01225786
5.97E+02,0.013628181
5.98E+02,0.013216807
5.98E+02,0.012738124
5.98E+02,0.013079614
5.99E+02,0.013672768
5.99E+02,0.012211687
6.00E+02,0.012005551
6.00E+02,0.013070301
6.00E+02,0.012616455
6.01E+02,0.012338037
6.01E+02,0.012818717
6.01E+02,0.011281498
6.02E+02,0.011264639
6.02E+02,0.011817306
6.02E+02,0.012405613
6.03E+02,0.012157994
6.03E+02,0.012097528
6.03E+02,0.011091513
6.04E+02,0.011790911
6.04E+02,0.011734417
6.04E+02,0.012217954
6.05E+02,0.011672504
6.05E+02,0.011160948
6.05E+02,0.011342969
6.06E+02,0.010873663
6.06E+02,0.011730131
6.07E+02,0.012326496
6.07E+02,0.010892136
6.07E+02,0.011298136
6.08E+02,0.011855166
6.08E+02,0.01155731
6.08E+02,0.011343974
6.09E+02,0.012527191
6.09E+02,0.013490641
6.09E+02,0.014793417
6.10E+02,0.016123097
6.10E+02,0.020723885
6.10E+02,0.022117885
6.11E+02,0.021804361
6.11E+02,0.019887074
6.11E+02,0.018558457
6.12E+02,0.018117251
6.12E+02,0.016767105
6.12E+02,0.014629008
6.13E+02,0.014487321
6.13E+02,0.013603204
6.14E+02,0.014132189
6.14E+02,0.01373426
6.14E+02,0.012231191
6.15E+02,0.01275249
6.15E+02,0.01172922
6.15E+02,0.011769044
6.16E+02,0.011379278
6.16E+02,0.009932581
6.16E+02,0.01064558
6.17E+02,0.010873112
6.17E+02,0.011066746
6.17E+02,0.010627866
6.18E+02,0.010002997
6.18E+02,0.011235695
6.18E+02,0.010389031
6.19E+02,0.010662477
6.19E+02,0.010302057
6.19E+02,0.010198472
6.20E+02,0.010692056
6.20E+02,0.011520016
6.20E+02,0.010785021
6.21E+02,0.01076175
6.21E+02,0.010171855
6.22E+02,0.010068206
6.22E+02,0.010496676
6.22E+02,0.010048131
6.23E+02,0.011149337
6.23E+02,0.009801469
6.23E+02,0.00916514
6.24E+02,0.011485945
6.24E+02,0.011201379
6.24E+02,0.011324498
6.25E+02,0.010120858
6.25E+02,0.010168691
6.25E+02,0.010376043
6.26E+02,0.011453078
6.26E+02,0.010525905
6.26E+02,0.00970099
6.27E+02,0.010674418
6.27E+02,0.009315576
6.27E+02,0.009566674
6.28E+02,0.009886989
6.28E+02,0.009713664
6.28E+02,0.009425887
6.29E+02,0.009987429
6.29E+02,0.009195442
6.30E+02,0.009367361
6.30E+02,0.011099605
6.30E+02,0.010337583
6.31E+02,0.011181681
6.31E+02,0.010377205
6.31E+02,0.010241603
6.32E+02,0.01073947
6.32E+02,0.00918589
6.32E+02,0.008928468
6.33E+02,0.009376383
6.33E+02,0.008676877
6.33E+02,0.009654524
6.34E+02,0.009438742
6.34E+02,0.008382741
6.34E+02,0.008281081
6.35E+02,0.009222094
6.35E+02,0.009397412
6.35E+02,0.00914355
6.36E+02,0.008801461
6.36E+02,0.00874106
6.36E+02,0.009502553
6.37E+02,0.008301359
6.37E+02,0.008976485
6.37E+02,0.00826593
6.38E+02,0.008081897
6.38E+02,0.008639367
6.38E+02,0.00945074
6.39E+02,0.00715813
6.39E+02,0.008047483
6.40E+02,0.009526813
6.40E+02,0.008587976
6.40E+02,0.008896519
6.41E+02,0.008666666
6.41E+02,0.009068525
6.41E+02,0.00946676
6.42E+02,0.008775109
6.42E+02,0.007826025
6.42E+02,0.008903499
6.43E+02,0.00854424
6.43E+02,0.008395468
6.43E+02,0.007728843
6.44E+02,0.008183405
6.44E+02,0.009800285
6.44E+02,0.008573547
6.45E+02,0.008512678
6.45E+02,0.008014757
6.45E+02,0.008858409
6.46E+02,0.008660691
6.46E+02,0.010917879
6.46E+02,0.009146491
6.47E+02,0.008813137
6.47E+02,0.009542997
6.47E+02,0.009081833
6.48E+02,0.008749525
6.48E+02,0.008457762
6.48E+02,0.008119755
6.49E+02,0.008760001
6.49E+02,0.009007232
6.50E+02,0.008936305
6.50E+02,0.008327717
6.50E+02,0.008800882
6.51E+02,0.009047636
6.51E+02,0.007849059
6.51E+02,0.009177745
6.52E+02,0.008883578
6.52E+02,0.009229553
6.52E+02,0.006692848
6.53E+02,0.00822209
6.53E+02,0.008508992
6.53E+02,0.008944074
6.54E+02,0.008000871
6.54E+02,0.007741094
6.54E+02,0.007711528
6.55E+02,0.008238904
6.55E+02,0.008445609
6.55E+02,0.008837273
6.56E+02,0.00852804
6.56E+02,0.007852064
6.56E+02,0.007022463
6.57E+02,0.00976809
6.57E+02,0.008566784
6.57E+02,0.008016592
6.58E+02,0.008456049
6.58E+02,0.008712065
6.58E+02,0.008393608
6.59E+02,0.008833554
6.59E+02,0.007226848
6.59E+02,0.008005088
6.60E+02,0.009593737
6.60E+02,0.010375906
6.60E+02,0.009003483
6.61E+02,0.007719967
6.61E+02,0.01014062
6.61E+02,0.008811387
6.62E+02,0.009893044
6.62E+02,0.007978423
6.63E+02,0.007506875
6.63E+02,0.008544549
6.63E+02,0.007389767
6.64E+02,0.00735677
6.64E+02,0.008834442
6.64E+02,0.008896974
6.65E+02,0.00935379
6.65E+02,0.00809198
6.65E+02,0.008551321
6.66E+02,0.008605773
6.66E+02,0.00758883
6.66E+02,0.008499994
6.67E+02,0.009548667
6.67E+02,0.008125421
6.67E+02,0.008040528
6.68E+02,0.008953155
6.68E+02,0.010016553
6.68E+02,0.006633949
6.69E+02,0.007949327
6.69E+02,0.008915328
6.69E+02,0.00868915
6.70E+02,0.007793678
6.70E+02,0.008102627
6.70E+02,0.008879142
6.71E+02,0.007479011
6.71E+02,0.008349671
6.71E+02,0.006485442
6.72E+02,0.007666123
6.72E+02,0.009618601
6.72E+02,0.008617025
6.73E+02,0.008834309
6.73E+02,0.007207801
6.73E+02,0.008300496
6.74E+02,0.00816349
6.74E+02,0.0090003
6.74E+02,0.009838509
6.75E+02,0.006757768
6.75E+02,0.00682101
6.75E+02,0.008075004
6.76E+02,0.008815338
6.76E+02,0.009869062
6.76E+02,0.009676873
6.77E+02,0.00943496
6.77E+02,0.008189455
6.78E+02,0.008465103
6.78E+02,0.008166727
6.78E+02,0.008493876
6.79E+02,0.008455789
6.79E+02,0.008261597
6.79E+02,0.008755665
6.80E+02,0.008929672
6.80E+02,0.007836711
6.80E+02,0.00843671
6.81E+02,0.007918283
6.81E+02,0.008415166
6.81E+02,0.007845151
6.82E+02,0.007654148
6.82E+02,0.007940438
6.82E+02,0.008445827
6.83E+02,0.007438923
6.83E+02,0.007893001
6.83E+02,0.007804292
6.84E+02,0.009726207
6.84E+02,0.007567697
6.84E+02,0.008404281
6.85E+02,0.007770546
6.85E+02,0.011032775
6.85E+02,0.008795416
6.86E+02,0.009593177
6.86E+02,0.008949781
6.86E+02,0.008860031
6.87E+02,0.010929145
6.87E+02,0.008503278
6.87E+02,0.008684374
6.88E+02,0.00848129
6.88E+02,0.009902262
6.88E+02,0.009366174
6.89E+02,0.010407298
6.89E+02,0.008062935
6.89E+02,0.009443038
6.90E+02,0.010832354
6.90E+02,0.009326389
6.90E+02,0.009757572
6.91E+02,0.010074628
6.91E+02,0.00895514
6.91E+02,0.008520761
6.92E+02,0.00872565
6.92E+02,0.008804295
6.92E+02,0.008768279
6.93E+02,0.008326024
6.93E+02,0.009866541
6.93E+02,0.009018939
6.94E+02,0.009689775
6.94E+02,0.009303947
6.94E+02,0.008151307
6.95E+02,0.008113904
6.95E+02,0.01022133
6.95E+02,0.008160134
6.96E+02,0.010641105
6.96E+02,0.009358285
6.96E+02,0.007880853
6.97E+02,0.010449607
6.97E+02,0.010120981
6.97E+02,0.00790149
6.98E+02,0.009826304
6.98E+02,0.009428747
6.98E+02,0.010140451
6.99E+02,0.010980107
6.99E+02,0.011021168
6.99E+02,0.009749014
7.00E+02,0.008843002
7.00E+02,0.00931361
7.00E+02,0.009528866
7.01E+02,0.008797852
7.01E+02,0.010537597
7.01E+02,0.010246173
7.02E+02,0.008433881
7.02E+02,0.008462529
7.02E+02,0.008614401
7.03E+02,0.010372202
7.03E+02,0.009120486
7.03E+02,0.011921824
7.04E+02,0.009494609
7.04E+02,0.009461135
7.04E+02,0.010799896
7.05E+02,0.010434079
7.05E+02,0.010533863
7.06E+02,0.009190537
7.06E+02,0.010940403
7.06E+02,0.010979688
7.07E+02,0.011485462
7.07E+02,0.010990619
7.07E+02,0.00861608
7.08E+02,0.010597436
7.08E+02,0.009954152
7.08E+02,0.012343158
7.09E+02,0.012116148
7.09E+02,0.011334384
7.09E+02,0.011435149
7.10E+02,0.00866109
7.10E+02,0.009856618
7.10E+02,0.010021688
7.11E+02,0.010331068
7.11E+02,0.010981822
7.11E+02,0.011920884
7.12E+02,0.012032026
7.12E+02,0.011308074
7.12E+02,0.011909225
7.13E+02,0.012232501
7.13E+02,0.012056556
7.13E+02,0.010963795
7.14E+02,0.011204421
7.14E+02,0.010238952
7.14E+02,0.01040601
7.15E+02,0.009582813
7.15E+02,0.00931876
7.15E+02,0.009491442
7.16E+02,0.011470685
7.16E+02,0.012448344
7.16E+02,0.012624466
7.17E+02,0.012374089
7.17E+02,0.009702866
7.17E+02,0.013026651
7.18E+02,0.010495071
7.18E+02,0.011489631
7.18E+02,0.009895787
7.19E+02,0.009693577
7.19E+02,0.010239632
7.19E+02,0.010711821
7.20E+02,0.010664143
7.20E+02,0.009116057
7.20E+02,0.009884821
7.21E+02,0.014427697
7.21E+02,0.013330172
7.21E+02,0.012530167
7.22E+02,0.009683094
7.22E+02,0.011601468
7.22E+02,0.011797712
7.23E+02,0.009997903
7.23E+02,0.00887284
7.23E+02,0.010661574
7.24E+02,0.013781257
7.24E+02,0.012979346
7.24E+02,0.010220461
7.25E+02,0.011884316
7.25E+02,0.012145092
7.25E+02,0.011550254
7.26E+02,0.012921766
7.26E+02,0.013585565
7.26E+02,0.013446461
7.27E+02,0.01317412
7.27E+02,0.011151463
7.27E+02,0.013404549
7.28E+02,0.011525139
7.28E+02,0.010990436
7.28E+02,0.01357831
7.29E+02,0.012732275
7.29E+02,0.013570183
7.29E+02,0.011988079
7.30E+02,0.010958609
7.30E+02,0.013423702
7.30E+02,0.013608695
7.31E+02,0.009496334
7.31E+02,0.01114856
7.31E+02,0.011831965
7.32E+02,0.012271785
7.32E+02,0.013030827
7.32E+02,0.012236152
7.32E+02,0.012590903
7.33E+02,0.012294422
7.33E+02,0.012247575
7.33E+02,0.012112001
7.34E+02,0.012887178
7.34E+02,0.012414759
7.34E+02,0.008929995
7.35E+02,0.012969816
735.147,0.011235397
7.35E+02,0.0119417
7.36E+02,0.011723458
7.36E+02,0.012685392
7.36E+02,0.011352435
7.37E+02,0.010700043
7.37E+02,0.011740705
7.37E+02,0.011945741
7.38E+02,0.012998226
7.38E+02,0.011481787
7.38E+02,0.01236533
7.39E+02,0.013604112
7.39E+02,0.01268508
7.39E+02,0.014618612
7.40E+02,0.015083736
7.40E+02,0.013115346
7.40E+02,0.01287806
7.41E+02,0.01273367
7.41E+02,0.012843135
7.41E+02,0.012957767
7.42E+02,0.011925671
7.42E+02,0.012397283
7.42E+02,0.014281613
7.43E+02,0.014485929
7.43E+02,0.012487151
7.43E+02,0.013582058
7.44E+02,0.013615799
7.44E+02,0.015344731
7.44E+02,0.012966066
7.45E+02,0.015340366
7.45E+02,0.013223313
7.45E+02,0.014167663
7.46E+02,0.012392353
7.46E+02,0.014056701
7.46E+02,0.014187801
7.47E+02,0.013850373
7.47E+02,0.013241705
7.47E+02,0.013269895
7.48E+02,0.016153646
7.48E+02,0.014071937
7.48E+02,0.014102717
7.49E+02,0.01376074
7.49E+02,0.014712305
7.49E+02,0.012514161
7.50E+02,0.012538367
7.50E+02,0.010521841
7.50E+02,0.015790333
7.51E+02,0.012169393
7.51E+02,0.015393531
7.51E+02,0.011666678
7.52E+02,0.014440056
7.52E+02,0.014660825
7.52E+02,0.017265406
7.53E+02,0.012652662
7.53E+02,0.013256776
7.53E+02,0.01579533
7.54E+02,0.012663068
7.54E+02,0.015781092
7.54E+02,0.011868611
7.55E+02,0.01239426
7.55E+02,0.012531514
7.55E+02,0.013734335
7.56E+02,0.014943403
7.56E+02,0.014108958
7.56E+02,0.016403075
7.57E+02,0.014476962
7.57E+02,0.014112521
7.57E+02,0.016129778
7.58E+02,0.014186423
7.58E+02,0.014316714
7.58E+02,0.016753305
7.59E+02,0.015195992
7.59E+02,0.013432679
7.59E+02,0.013077453
7.59E+02,0.018059304
7.60E+02,0.015881532
7.60E+02,0.016736991
7.60E+02,0.014033302
7.61E+02,0.016725298
7.61E+02,0.016569647
7.61E+02,0.015495049
7.62E+02,0.014097187
7.62E+02,0.014033406
7.62E+02,0.011480665
7.63E+02,0.016194077
7.63E+02,0.012490471
7.63E+02,0.01535801
7.64E+02,0.014565421
7.64E+02,0.018297419
7.64E+02,0.016565047
7.65E+02,0.016613379
7.65E+02,0.015487895
7.65E+02,0.01382656
7.66E+02,0.015576973
7.66E+02,0.016164381
7.66E+02,0.013194085
7.67E+02,0.018739728
7.67E+02,0.016640481
7.67E+02,0.01626357
7.68E+02,0.016101827
7.68E+02,0.014410173
7.68E+02,0.01600074
7.69E+02,0.015403246
7.69E+02,0.015459336
7.69E+02,0.013192959
7.70E+02,0.016134336
7.70E+02,0.01832918
7.70E+02,0.018059933
7.71E+02,0.014516512
7.71E+02,0.016035972
7.71E+02,0.013025948
7.72E+02,0.016727485
7.72E+02,0.015410221
7.72E+02,0.018906128
7.73E+02,0.014029799
7.73E+02,0.019165316
7.73E+02,0.018080602
7.73E+02,0.015347315
7.74E+02,0.016933261
7.74E+02,0.015483197
7.74E+02,0.019319944
7.75E+02,0.01976372
7.75E+02,0.016983891
7.75E+02,0.017772466
7.76E+02,0.016412764
7.76E+02,0.013585775
7.76E+02,0.015453523
7.77E+02,0.020379053
7.77E+02,0.016197064
7.77E+02,0.017981135
7.78E+02,0.017804303
7.78E+02,0.018131641
7.78E+02,0.016218776
7.79E+02,0.021753065
7.79E+02,0.017473013
7.79E+02,0.015899899
7.80E+02,0.013067172
7.80E+02,0.02071535
7.80E+02,0.018773725
7.81E+02,0.024847339
7.81E+02,0.020712082
7.81E+02,0.017063361
7.82E+02,0.021764614
7.82E+02,0.018476043
7.82E+02,0.018421708
7.83E+02,0.019269403
7.83E+02,0.020252628
7.83E+02,0.018745854
7.84E+02,0.021031798
7.84E+02,0.0194939
7.84E+02,0.01914158
7.85E+02,0.020894933
7.85E+02,0.016950476
7.85E+02,0.020558705
7.85E+02,0.018732533
7.86E+02,0.016881199
7.86E+02,0.021573376
7.86E+02,0.021994884
7.87E+02,0.019474106
7.87E+02,0.019358084
7.87E+02,0.020570141
7.88E+02,0.017909005
7.88E+02,0.016983944
7.88E+02,0.019272417
7.89E+02,0.021299337
7.89E+02,0.021982724
7.89E+02,0.023373387
7.90E+02,0.019876251
7.90E+02,0.017342275
7.90E+02,0.017762126
7.91E+02,0.019542708
7.91E+02,0.021328685
7.91E+02,0.019850385
7.92E+02,0.019336477
7.92E+02,0.019637034
7.92E+02,0.017757912
7.93E+02,0.01437584
7.93E+02,0.021468297
7.93E+02,0.021236609
7.94E+02,0.020313948
7.94E+02,0.020207133
7.94E+02,0.018305909
7.94E+02,0.014490519
7.95E+02,0.019329049
7.95E+02,0.019045233
7.95E+02,0.020178235
7.96E+02,0.023669125
7.96E+02,0.015711997
7.96E+02,0.020299384
7.97E+02,0.024627878
7.97E+02,0.02551541
7.97E+02,0.02152832
7.98E+02,0.02005222
7.98E+02,0.017577947
7.98E+02,0.020427794
7.99E+02,0.020656226
7.99E+02,0.018860555
7.99E+02,0.017636348
8.00E+02,0.016965684
8.00E+02,0.022406387
8.00E+02,0.020753268
8.01E+02,0.021937473
8.01E+02,0.023871229
8.01E+02,0.021052407
8.02E+02,0.021558631
8.02E+02,0.031143492
8.02E+02,0.019083183
8.03E+02,0.024400679
8.03E+02,0.019799031
8.03E+02,0.019869536
8.03E+02,0.020074828
8.04E+02,0.02514702
8.04E+02,0.019324068
8.04E+02,0.022047356
8.05E+02,0.020048988
8.05E+02,0.021298322
8.05E+02,0.017919991
8.06E+02,0.02428833
8.06E+02,0.02299002
8.06E+02,0.020205603
8.07E+02,0.019058448
8.07E+02,0.017772603
8.07E+02,0.017382323
8.08E+02,0.021274009
8.08E+02,0.022746953
8.08E+02,0.024671675
8.09E+02,0.019967746
8.09E+02,0.026402707
8.09E+02,0.019623637
8.10E+02,0.021760286
8.10E+02,0.021528616
8.10E+02,0.02793809
8.10E+02,0.030432186
8.11E+02,0.024479222
8.11E+02,0.023293742
8.11E+02,0.025154665
8.12E+02,0.026551117
8.12E+02,0.025375889
8.12E+02,0.024036626
8.13E+02,0.026760317
8.13E+02,0.028031676
8.13E+02,0.024222287
8.14E+02,0.029974562
8.14E+02,0.020117021
8.14E+02,0.028243398
8.15E+02,0.020808504
8.15E+02,0.018188887
8.15E+02,0.024207999
8.16E+02,0.0215711
8.16E+02,0.025088067
8.16E+02,0.023829118
8.17E+02,0.025297291
8.17E+02,0.025905681
8.17E+02,0.021846052
8.17E+02,0.025411747
8.18E+02,0.019207516
8.18E+02,0.027027118
8.18E+02,0.023274472
8.19E+02,0.021587898
8.19E+02,0.028801809
8.19E+02,0.023548986
8.20E+02,0.030807167
8.20E+02,0.021376924
8.20E+02,0.028492168
8.21E+02,0.026796433
8.21E+02,0.021633546
8.21E+02,0.026866709
8.22E+02,0.027926825
8.22E+02,0.028037449
8.22E+02,0.026499755
8.23E+02,0.026433748
8.23E+02,0.027306745
8.23E+02,0.027251549
8.24E+02,0.025876573
8.24E+02,0.027335477
8.24E+02,0.022105703
8.24E+02,0.031409772
8.25E+02,0.020942745
8.25E+02,0.031839507
8.25E+02,0.030804007
8.26E+02,0.030547489
8.26E+02,0.024389612
8.26E+02,0.022138527
8.27E+02,0.022610212
8.27E+02,0.030815394
8.27E+02,0.025194826
8.28E+02,0.030504529
8.28E+02,0.029831191
8.28E+02,0.024118412
8.29E+02,0.025228064
8.29E+02,0.031255889
8.29E+02,0.033648106
8.30E+02,0.025200732
8.30E+02,0.025310514
8.30E+02,0.034535342
8.30E+02,0.02697322
8.31E+02,0.029806453
8.31E+02,0.032639342
8.31E+02,0.025184753
8.32E+02,0.029520754
8.32E+02,0.03727962
8.32E+02,0.025048009
8.33E+02,0.030901525
8.33E+02,0.026709194
8.33E+02,0.033251861
8.34E+02,0.027355852
8.34E+02,0.03289911
8.34E+02,0.033659547
8.35E+02,0.035522186
8.35E+02,0.025374845
8.35E+02,0.031192032
8.35E+02,0.031092708
8.36E+02,0.035002362
8.36E+02,0.032882007
8.36E+02,0.034582654
8.37E+02,0.03134956
8.37E+02,0.027630603
8.37E+02,0.032475247
8.38E+02,0.03643964
8.38E+02,0.03044349
8.38E+02,0.033520307
8.39E+02,0.027012569
8.39E+02,0.037926475
8.39E+02,0.032990157
8.40E+02,0.041713539
8.40E+02,0.030702568
8.40E+02,0.026137658
8.41E+02,0.033516753
8.41E+02,0.031975424
8.41E+02,0.027614161
8.41E+02,0.035319502
8.42E+02,0.036413657
8.42E+02,0.037246688
8.42E+02,0.035237967
8.43E+02,0.035389833
8.43E+02,0.034577077
8.43E+02,0.035683303
8.44E+02,0.030950823
8.44E+02,0.029852932
8.44E+02,0.036900253
8.45E+02,0.040491759
8.45E+02,0.038625777
8.45E+02,0.036295497
8.46E+02,0.03745218
8.46E+02,0.033577907
8.46E+02,0.033444062
8.46E+02,0.031033396
8.47E+02,0.042573182
8.47E+02,0.044254835
8.47E+02,0.042358966
8.48E+02,0.036072754
8.48E+02,0.034933813
8.48E+02,0.036894305
8.49E+02,0.037272497
8.49E+02,0.038434221
8.49E+02,0.046646109
8.50E+02,0.038453036
8.50E+02,0.045706204
8.50E+02,0.039239408
8.51E+02,0.034088646
8.51E+02,0.036073697
8.51E+02,0.044763908
8.51E+02,0.040110436
8.52E+02,0.042689085
8.52E+02,0.033693514
8.52E+02,0.03868778
8.53E+02,0.038848223
8.53E+02,0.040882944
8.53E+02,0.04704811
8.54E+02,0.032677302
8.54E+02,0.035839545
8.54E+02,0.034341659
8.55E+02,0.03447312
8.55E+02,0.038801406
8.55E+02,0.044812951
8.55E+02,0.040479331
8.56E+02,0.040929035
8.56E+02,0.041080282
8.56E+02,0.038102841
8.57E+02,0.049967552
8.57E+02,0.044440138
857.361,0.048075211
857.672,0.038967402
857.982,0.034775946
858.293,0.043637358
858.603,0.040328082
858.913,0.04811074
859.223,0.035314292
859.533,0.03812097
859.844,0.044536099
860.154,0.043517127
860.464,0.03858023
860.773,0.042358497
861.083,0.036503629
861.393,0.039348541
861.703,0.043812161
862.013,0.040644681
862.322,0.038356745
862.632,0.049020626
862.941,0.037128792
863.251,0.041927641
863.56,0.043377956
863.869,0.049830196
864.179,0.041523049
864.488,0.039477509
864.797,0.050132292
865.106,0.043286398
865.415,0.042159357
865.724,0.049125709
866.033,0.05647039
866.342,0.051199207
866.651,0.046521419
866.96,0.055908891
867.269,0.044948291
867.577,0.041510137
867.886,0.053630806
868.195,0.051207128
868.503,0.050779389
868.812,0.056723906
869.12,0.04784726
869.428,0.052172966
869.737,0.039445219
870.045,0.036549427
870.353,0.045676104
870.661,0.047675962
870.969,0.059071856
871.277,0.05132513
871.585,0.054752507
871.893,0.048293292
872.201,0.049618033
872.509,0.046269873
872.817,0.056456158
873.124,0.055703225
873.432,0.054560956
873.739,0.051151987
874.047,0.056134294
874.354,0.045369317
874.662,0.064729954
874.969,0.052447241
875.276,0.056023037
875.584,0.046953373
875.891,0.064771375
876.198,0.068827168
876.505,0.058946982
876.812,0.056203934
877.119,0.060326944
877.426,0.047233283
877.733,0.058700241
878.04,0.052440427
878.346,0.048083294
878.653,0.060584816
878.96,0.065606174
879.266,0.053678064
879.573,0.045614725
879.879,0.060369183
880.185,0.05015724
880.492,0.056168069
880.798,0.05400127
881.104,0.063416694
881.411,0.064632998
881.717,0.067083014
882.023,0.067950466
882.329,0.072221833
882.635,0.063758644
882.941,0.065443054
883.246,0.064984808
883.552,0.057138889
883.858,0.059204617
884.164,0.070930651
884.469,0.070808973
884.775,0.070723815
885.08,0.059062561
885.386,0.065609776
885.691,0.055609424
885.996,0.074314868
886.302,0.060104833
886.607,0.073088824
886.912,0.06836977
887.217,0.062630664
887.522,0.050908413
887.827,0.064020325
888.132,0.067946507
888.437,0.068639129
888.742,0.067471751
889.046,0.060735127
889.351,0.079700306
889.656,0.063079757
889.96,0.064784985
890.265,0.075472157
890.569,0.068561638
890.874,0.09364586
891.178,0.069004072
891.483,0.083113507
891.787,0.072254346
892.091,0.072829612
892.395,0.089321275
892.699,0.08564788
893.003,0.08081402
893.307,0.061965507
893.611,0.066907808
893.915,0.076300143
894.219,0.05986617
894.523,0.06829467
894.826,0.071920383
895.13,0.079437758
895.433,0.080198092
895.737,0.084813757
896.04,0.070635857
896.344,0.082276499
896.647,0.054640558
896.95,0.083695896
897.254,0.079475796
897.557,0.084175141
897.86,0.099363508
898.163,0.066301472
898.466,0.072001726
898.769,0.063558477
899.072,0.073366467
899.375,0.082224629
899.677,0.07780162
899.98,0.06926317
900.283,0.064378555
900.585,0.073214816
900.888,0.060515129
901.191,0.079789199
901.493,0.080012575
901.795,0.064119753
902.098,0.061185935
902.4,0.071751527
902.702,0.068833938
903.004,0.062756708
903.306,0.066620923
903.608,0.081019713
903.91,0.069601893
904.212,0.054492178
904.514,0.0588941
904.816,0.071290659
905.118,0.060804212
905.42,0.071192151
905.721,0.070892694
906.023,0.075383207
906.324,0.076734236
906.626,0.080252675
906.927,0.081065092
907.228,0.067096849
907.53,0.069546503
907.831,0.070435814
908.132,0.071286315
908.433,0.088304548
908.734,0.078078298
909.035,0.074074887
909.336,0.061476197
909.637,0.071977655
909.938,0.072901074
910.239,0.079567081
910.54,0.085729264
910.84,0.08841156
911.141,0.076592116
911.441,0.067107818
911.742,0.077416018
912.042,0.091355453
912.343,0.075050104
912.643,0.087283866
912.943,0.087078819
913.244,0.089343644
913.544,0.069837248
913.844,0.070192946
914.144,0.096178775
914.444,0.083280314
914.744,0.10039492
915.044,0.072495724
915.343,0.0854015
915.643,0.092933379
915.943,0.075245411
916.243,0.087866502
916.542,0.08775126
916.842,0.105097264
917.141,0.082388148
917.441,0.099257333
917.74,0.088035983
918.039,0.083946736
918.338,0.109131761
918.638,0.078944359
918.937,0.094944217
919.236,0.088022315
919.535,0.106340138
919.834,0.089729117
920.133,0.098016336
920.431,0.121661126
920.73,0.121744872
921.029,0.110604074
921.328,0.097925987
921.626,0.087216607
921.925,0.103769271
922.223,0.085558207
922.522,0.119109236
922.82,0.104428866
923.118,0.077097756
923.417,0.1053515
923.715,0.108558982
924.013,0.115500889
924.311,0.104054065
924.609,0.108631381
924.907,0.109319141
925.205,0.113312814
925.503,0.106192752
925.801,0.110238935
926.098,0.127089898
926.396,0.111903472
926.694,0.117550267
926.991,0.115741151
927.289,0.114943675
927.586,0.117428247
927.884,0.123360276
928.181,0.131812189
928.478,0.114908063
928.775,0.13377574
929.073,0.137273439
929.37,0.134035897
929.667,0.100248192
929.964,0.139830821
930.261,0.094952314
930.557,0.155000428
930.854,0.111961231
931.151,0.120235271
931.448,0.102950194
931.744,0.148448739
932.041,0.156331058
932.337,0.15025376
932.634,0.12866352
932.93,0.127750894
933.227,0.123133994
933.523,0.144717781
933.819,0.128059777
934.115,0.124965697
934.412,0.146729219
934.708,0.112581185
935.004,0.169317048
935.3,0.122526806
935.595,0.14813724
935.891,0.147167031
936.187,0.149339028
936.483,0.161911398
936.778,0.145225793
937.074,0.157215462
937.369,0.14045668
937.665,0.146142153
937.96,0.153766932
938.256,0.191277947
938.551,0.14935619
938.846,0.15505634
939.141,0.165519294
939.437,0.190765782
939.732,0.148644984
940.027,0.174198263
940.322,0.175428891
940.617,0.16463182
940.911,0.153918852
941.206,0.180381689
941.501,0.164209699
941.796,0.187356839
942.09,0.158317373
942.385,0.17808614
942.679,0.176927844
942.974,0.189299107
943.268,0.14388116
943.562,0.215191718
943.857,0.206885497
944.151,0.189573214
944.445,0.143811899
944.739,0.181782797
945.033,0.144811057
945.327,0.164928763
945.621,0.170420111
945.915,0.191228375
946.208,0.234590674
946.502,0.168315759
946.796,0.168315821
947.089,0.203387625
947.383,0.171937595
947.676,0.148852151
947.97,0.17481155
948.263,0.210994227
948.557,0.221210452
948.85,0.208025825
949.143,0.221438744
949.436,0.225898093
949.729,0.221595453
950.022,0.185256969
950.315,0.231483311
950.608,0.187049428
950.901,0.228150548
951.194,0.216974273
951.487,0.237971236
951.779,0.230359812
952.072,0.227354735
952.364,0.240895047
952.657,0.262940643
952.949,0.188826088
953.242,0.215695592
953.534,0.2212041
953.826,0.192472819
954.118,0.249344531
954.411,0.208278842
954.703,0.302887559
954.995,0.208478305
955.287,0.258712399
955.579,0.260936162
955.87,0.190617086
956.162,0.232703125
956.454,0.270157544
956.746,0.255728518
957.037,0.25406968
957.329,0.28995702
957.62,0.259728926
957.912,0.28920655
958.203,0.254586165
958.494,0.270749361
958.786,0.27536156
959.077,0.257606738
959.368,0.294016078
959.659,0.284217386
959.95,0.331746919
960.241,0.326501589
960.532,0.319021206
960.823,0.299497902
961.114,0.351635823
961.404,0.339384044
961.695,0.32894947
961.986,0.341941026
962.276,0.364700005
962.567,0.316541183
962.857,0.343582541
963.147,0.371611103
963.438,0.374420647
963.728,0.324582851
964.018,0.340705872
964.308,0.333775721
964.598,0.381772537
964.888,0.347376575
965.178,0.352782015
965.468,0.343377345
965.758,0.351767341
966.048,0.299008992
966.338,0.389808313
966.627,0.280481859
966.917,0.391002629
967.206,0.305308175
967.496,0.330701591
967.785,0.395239291
968.075,0.421930375
968.364,0.346717212
968.653,0.392679679
968.942,0.366709202
969.232,0.369217713
969.521,0.384514554
969.81,0.42428656
970.099,0.445425938
970.388,0.35757969
970.676,0.372689427
970.965,0.341961074
971.254,0.453593994
971.543,0.433350225
971.831,0.460271615
972.12,0.410760251
972.408,0.424858398
972.697,0.441879603
972.985,0.388700247
973.273,0.458784038
973.561,0.483557967
973.85,0.486945277
974.138,0.454465165
974.426,0.471287201
974.714,0.409130859
975.002,0.463817219
975.29,0.371335502
975.577,0.524199617
975.865,0.386478837
976.153,0.421878048
976.441,0.512919173
976.728,0.480292576
977.016,0.359234852
977.303,0.534933924
977.59,0.495071055
977.878,0.543262123
978.165,0.448695677
978.452,0.538919598
978.74,0.498362656
979.027,0.517925489
979.314,0.548184855
979.601,0.516076942
979.888,0.498797159
980.174,0.365194371
980.461,0.592622992
980.748,0.610841909
981.035,0.541795193
981.321,0.497270235
981.608,0.571032982
981.894,0.540429228
982.181,0.546769578
982.467,0.601434662
982.754,0.70273324
983.04,0.590876621
983.326,0.691887649
983.612,0.780847378
983.898,0.592975908
984.184,0.539494017
984.47,0.483843464
984.756,0.734321722
985.042,0.565754641
985.328,0.654310647
985.614,0.648160897
985.899,0.696028972
986.185,0.644056347
986.47,0.582986406
986.756,0.756923046
987.041,0.52751028
987.327,0.643631165
987.612,0.60158889
987.897,0.640400523
988.182,0.732226173
988.468,0.753709299
988.753,0.826145546
989.038,0.59230559
989.323,0.654063699
989.607,0.735941618
989.892,0.542569529
990.177,0.77618187
990.462,0.78866469
990.746,0.575891698
991.031,0.597121626
991.315,0.740745681
991.6,0.948681152
991.884,0.741513053
992.169,0.719398668
992.453,0.709642019
992.737,0.769428192
993.021,0.793909832
993.305,0.853586663
993.59,0.811797516
993.874,0.826657599
994.157,0.811127806
994.441,0.875007004
994.725,0.826428123
995.009,0.92220989
995.293,0.892413721
995.576,0.610481748
995.86,0.998959726
996.143,0.810368293
996.427,0.888908969
996.71,0.951225599
996.993,0.823240286
997.277,0.871162628
997.56,0.865445683
997.843,0.949434625
998.126,0.954177129
998.409,0.957048038
998.692,0.978091429
998.975,1.110038027
999.258,0.976954457
999.541,1.12798389
999.823,1.109411833
1000.106,1.126621377
1000.388,0.796553348
1000.671,1.017199672
1000.954,1.150259208
1001.236,0.950093501
1001.518,1.031893624
1001.801,0.998989129
1002.083,0.915290177
1002.365,1.123226028
1002.647,1.252000279
1002.929,1.215202738
1003.211,1.038223074
1003.493,1.317150403
1003.775,1.148451262
1004.057,1.371123923
1004.338,1.294876844
1004.62,1.262663155
1004.902,1.241715515
1005.183,1.386919795
1005.465,1.0710007
1005.746,1.171180875
1006.028,1.192101864
1006.309,1.336394009
1006.59,1.302878727
1006.871,1.297274239
1007.153,1.258480037
1007.434,1.540680945
1007.715,1.253260808
1007.996,1.277073826
1008.277,1.354370384
1008.557,1.475105151
1008.838,1.592240303
1009.119,1.338112756
1009.4,1.390417627
1009.68,1.297557117
1009.961,1.673039703
1010.241,1.348758532
1010.522,1.469514349
1010.802,1.806130991
1011.082,1.416066828
1011.362,1.331980436
1011.643,1.922234468
1011.923,1.815966913
1012.203,1.704961098
1012.483,1.202201531
1012.763,1.412837719
1013.042,2.070270717
1013.322,2.056100729
1013.602,1.633311931
1013.882,1.549451753
1014.161,1.861968494
1014.441,1.734749756
1014.72,1.830194983
1015,1.858618943
1015.279,1.91877588
1015.558,1.690850629
1015.838,1.58234875
1016.117,1.767834141
1016.396,1.941022198
1016.675,1.845762879
1016.954,2.033500368
1017.233,2.251509508
1017.512,1.93766918
1017.791,2.105453975
1018.07,2.288658084
1018.348,2.175298258
1018.627,1.986533663
1018.905,2.609516693
1019.184,2.359779057
1019.462,2.075747818
1019.741,2.07643438
1020.019,2.017435346
1020.297,2.315054643
1020.576,2.188057289
1020.854,2.401036669
1021.132,2.244681934
1021.41,2.24355671
1021.688,2.242431954
